# Profil de Te au temps 1.209999999999997e-12 
# simu : /Volumes/MERCURE/JOBS/tanh_50mic_Zeq10_B0/GNU/Te@y-c.set
# col 0 : abscisse (um)
# col 1 : Te (keV)
0.500000	1.000000
1.500000	1.000000
2.500000	1.000000
3.500000	1.000000
4.500000	1.000000
5.500000	1.000000
6.500000	1.000000
7.500000	1.000000
8.500000	1.000000
9.500000	1.000000
10.500000	1.000000
11.500000	1.000000
12.500000	1.000000
13.500000	1.000000
14.500000	1.000000
15.500000	1.000000
16.500000	1.000000
17.500000	1.000000
18.500000	1.000000
19.500000	1.000000
20.500000	1.000000
21.500000	1.000000
22.500000	1.000000
23.500000	1.000000
24.500000	1.000000
25.500000	1.000000
26.500000	1.000000
27.500000	1.000000
28.500000	1.000000
29.500000	1.000000
30.500000	1.000000
31.500000	1.000000
32.500000	1.000000
33.500000	1.000000
34.500000	1.000000
35.500000	1.000000
36.500000	1.000000
37.500000	1.000000
38.500000	1.000000
39.500000	1.000000
40.500000	1.000000
41.500000	1.000000
42.500000	1.000000
43.500000	1.000000
44.500000	1.000000
45.500000	1.000000
46.500000	1.000000
47.500000	1.000000
48.500000	1.000000
49.500000	1.000000
50.500000	1.000000
51.500000	1.000000
52.500000	1.000000
53.500000	1.000000
54.500000	1.000000
55.500000	1.000000
56.500000	1.000000
57.500000	1.000000
58.500000	1.000000
59.500000	1.000000
60.500000	1.000000
61.500000	1.000000
62.500000	1.000000
63.500000	1.000000
64.500000	1.000000
65.500000	1.000000
66.500000	1.000000
67.500000	1.000000
68.500000	1.000000
69.500000	1.000000
70.500000	1.000000
71.500000	1.000000
72.500000	1.000000
73.500000	1.000000
74.500000	1.000000
75.500000	1.000000
76.500000	1.000000
77.500000	1.000000
78.500000	1.000000
79.500000	1.000000
80.500000	1.000000
81.500000	1.000000
82.500000	1.000000
83.500000	1.000000
84.500000	1.000000
85.500000	1.000000
86.500000	1.000000
87.500000	0.999999
88.500000	0.999999
89.500000	0.999999
90.500000	0.999999
91.500000	0.999999
92.500000	0.999999
93.500000	0.999999
94.500000	0.999999
95.500000	0.999999
96.500000	0.999999
97.500000	0.999999
98.500000	0.999999
99.500000	0.999999
100.500000	0.999999
101.500000	0.999999
102.500000	0.999999
103.500000	0.999999
104.500000	0.999999
105.500000	0.999999
106.500000	0.999999
107.500000	0.999999
108.500000	0.999999
109.500000	0.999999
110.500000	0.999999
111.500000	0.999999
112.500000	0.999999
113.500000	0.999999
114.500000	0.999998
115.500000	0.999998
116.500000	0.999998
117.500000	0.999998
118.500000	0.999998
119.500000	0.999998
120.500000	0.999998
121.500000	0.999998
122.500000	0.999998
123.500000	0.999998
124.500000	0.999998
125.500000	0.999998
126.500000	0.999998
127.500000	0.999997
128.500000	0.999997
129.500000	0.999997
130.500000	0.999997
131.500000	0.999997
132.500000	0.999997
133.500000	0.999997
134.500000	0.999997
135.500000	0.999997
136.500000	0.999996
137.500000	0.999996
138.500000	0.999996
139.500000	0.999996
140.500000	0.999996
141.500000	0.999996
142.500000	0.999995
143.500000	0.999995
144.500000	0.999995
145.500000	0.999995
146.500000	0.999995
147.500000	0.999994
148.500000	0.999994
149.500000	0.999994
150.500000	0.999994
151.500000	0.999993
152.500000	0.999993
153.500000	0.999993
154.500000	0.999993
155.500000	0.999992
156.500000	0.999992
157.500000	0.999992
158.500000	0.999991
159.500000	0.999991
160.500000	0.999991
161.500000	0.999990
162.500000	0.999990
163.500000	0.999989
164.500000	0.999989
165.500000	0.999988
166.500000	0.999988
167.500000	0.999987
168.500000	0.999987
169.500000	0.999986
170.500000	0.999986
171.500000	0.999985
172.500000	0.999985
173.500000	0.999984
174.500000	0.999983
175.500000	0.999983
176.500000	0.999982
177.500000	0.999981
178.500000	0.999981
179.500000	0.999980
180.500000	0.999979
181.500000	0.999978
182.500000	0.999977
183.500000	0.999976
184.500000	0.999975
185.500000	0.999974
186.500000	0.999973
187.500000	0.999972
188.500000	0.999971
189.500000	0.999970
190.500000	0.999969
191.500000	0.999967
192.500000	0.999966
193.500000	0.999965
194.500000	0.999963
195.500000	0.999962
196.500000	0.999960
197.500000	0.999958
198.500000	0.999957
199.500000	0.999955
200.500000	0.999953
201.500000	0.999951
202.500000	0.999949
203.500000	0.999947
204.500000	0.999945
205.500000	0.999943
206.500000	0.999940
207.500000	0.999938
208.500000	0.999935
209.500000	0.999933
210.500000	0.999930
211.500000	0.999927
212.500000	0.999924
213.500000	0.999921
214.500000	0.999918
215.500000	0.999915
216.500000	0.999911
217.500000	0.999908
218.500000	0.999904
219.500000	0.999900
220.500000	0.999896
221.500000	0.999891
222.500000	0.999887
223.500000	0.999882
224.500000	0.999878
225.500000	0.999873
226.500000	0.999867
227.500000	0.999862
228.500000	0.999856
229.500000	0.999851
230.500000	0.999844
231.500000	0.999838
232.500000	0.999832
233.500000	0.999825
234.500000	0.999817
235.500000	0.999810
236.500000	0.999802
237.500000	0.999794
238.500000	0.999786
239.500000	0.999777
240.500000	0.999768
241.500000	0.999759
242.500000	0.999749
243.500000	0.999738
244.500000	0.999728
245.500000	0.999717
246.500000	0.999705
247.500000	0.999693
248.500000	0.999681
249.500000	0.999668
250.500000	0.999654
251.500000	0.999640
252.500000	0.999625
253.500000	0.999610
254.500000	0.999594
255.500000	0.999577
256.500000	0.999560
257.500000	0.999542
258.500000	0.999524
259.500000	0.999504
260.500000	0.999484
261.500000	0.999463
262.500000	0.999441
263.500000	0.999418
264.500000	0.999395
265.500000	0.999370
266.500000	0.999344
267.500000	0.999318
268.500000	0.999290
269.500000	0.999261
270.500000	0.999231
271.500000	0.999200
272.500000	0.999167
273.500000	0.999133
274.500000	0.999098
275.500000	0.999061
276.500000	0.999023
277.500000	0.998983
278.500000	0.998942
279.500000	0.998898
280.500000	0.998854
281.500000	0.998807
282.500000	0.998758
283.500000	0.998708
284.500000	0.998655
285.500000	0.998601
286.500000	0.998544
287.500000	0.998485
288.500000	0.998423
289.500000	0.998359
290.500000	0.998292
291.500000	0.998223
292.500000	0.998151
293.500000	0.998076
294.500000	0.997998
295.500000	0.997916
296.500000	0.997832
297.500000	0.997744
298.500000	0.997652
299.500000	0.997557
300.500000	0.997458
301.500000	0.997355
302.500000	0.997248
303.500000	0.997136
304.500000	0.997020
305.500000	0.996899
306.500000	0.996774
307.500000	0.996643
308.500000	0.996508
309.500000	0.996366
310.500000	0.996220
311.500000	0.996067
312.500000	0.995908
313.500000	0.995743
314.500000	0.995571
315.500000	0.995392
316.500000	0.995207
317.500000	0.995013
318.500000	0.994812
319.500000	0.994604
320.500000	0.994386
321.500000	0.994161
322.500000	0.993926
323.500000	0.993682
324.500000	0.993428
325.500000	0.993165
326.500000	0.992891
327.500000	0.992606
328.500000	0.992310
329.500000	0.992002
330.500000	0.991682
331.500000	0.991350
332.500000	0.991005
333.500000	0.990646
334.500000	0.990274
335.500000	0.989886
336.500000	0.989484
337.500000	0.989066
338.500000	0.988632
339.500000	0.988182
340.500000	0.987714
341.500000	0.987228
342.500000	0.986723
343.500000	0.986199
344.500000	0.985655
345.500000	0.985090
346.500000	0.984504
347.500000	0.983896
348.500000	0.983264
349.500000	0.982609
350.500000	0.981929
351.500000	0.981224
352.500000	0.980493
353.500000	0.979734
354.500000	0.978947
355.500000	0.978130
356.500000	0.977284
357.500000	0.976407
358.500000	0.975497
359.500000	0.974555
360.500000	0.973578
361.500000	0.972566
362.500000	0.971517
363.500000	0.970431
364.500000	0.969305
365.500000	0.968140
366.500000	0.966934
367.500000	0.965685
368.500000	0.964392
369.500000	0.963054
370.500000	0.961669
371.500000	0.960236
372.500000	0.958755
373.500000	0.957222
374.500000	0.955638
375.500000	0.954000
376.500000	0.952306
377.500000	0.950557
378.500000	0.948749
379.500000	0.946881
380.500000	0.944952
381.500000	0.942961
382.500000	0.940904
383.500000	0.938782
384.500000	0.936592
385.500000	0.934333
386.500000	0.932003
387.500000	0.929600
388.500000	0.927122
389.500000	0.924569
390.500000	0.921938
391.500000	0.919227
392.500000	0.916436
393.500000	0.913561
394.500000	0.910602
395.500000	0.907557
396.500000	0.904424
397.500000	0.901202
398.500000	0.897888
399.500000	0.894482
400.500000	0.890981
401.500000	0.887385
402.500000	0.883691
403.500000	0.879899
404.500000	0.876006
405.500000	0.872011
406.500000	0.867914
407.500000	0.863712
408.500000	0.859405
409.500000	0.854991
410.500000	0.850469
411.500000	0.845838
412.500000	0.841098
413.500000	0.836247
414.500000	0.831284
415.500000	0.826210
416.500000	0.821023
417.500000	0.815723
418.500000	0.810309
419.500000	0.804783
420.500000	0.799142
421.500000	0.793388
422.500000	0.787521
423.500000	0.781541
424.500000	0.775448
425.500000	0.769244
426.500000	0.762929
427.500000	0.756504
428.500000	0.749970
429.500000	0.743330
430.500000	0.736583
431.500000	0.729733
432.500000	0.722782
433.500000	0.715730
434.500000	0.708582
435.500000	0.701339
436.500000	0.694004
437.500000	0.686581
438.500000	0.679073
439.500000	0.671482
440.500000	0.663814
441.500000	0.656071
442.500000	0.648259
443.500000	0.640381
444.500000	0.632441
445.500000	0.624446
446.500000	0.616398
447.500000	0.608305
448.500000	0.600171
449.500000	0.592001
450.500000	0.583802
451.500000	0.575578
452.500000	0.567336
453.500000	0.559082
454.500000	0.550822
455.500000	0.542562
456.500000	0.534309
457.500000	0.526068
458.500000	0.517847
459.500000	0.509650
460.500000	0.501486
461.500000	0.493360
462.500000	0.485278
463.500000	0.477246
464.500000	0.469272
465.500000	0.461359
466.500000	0.453516
467.500000	0.445746
468.500000	0.438057
469.500000	0.430452
470.500000	0.422937
471.500000	0.415518
472.500000	0.408198
473.500000	0.400983
474.500000	0.393876
475.500000	0.386881
476.500000	0.380002
477.500000	0.373242
478.500000	0.366604
479.500000	0.360090
480.500000	0.353704
481.500000	0.347447
482.500000	0.341321
483.500000	0.335327
484.500000	0.329466
485.500000	0.323740
486.500000	0.318149
487.500000	0.312693
488.500000	0.307372
489.500000	0.302186
490.500000	0.297134
491.500000	0.292216
492.500000	0.287431
493.500000	0.282777
494.500000	0.278254
495.500000	0.273859
496.500000	0.269591
497.500000	0.265449
498.500000	0.261429
499.500000	0.257531
500.500000	0.253752
501.500000	0.250089
502.500000	0.246541
503.500000	0.243105
504.500000	0.239779
505.500000	0.236559
506.500000	0.233444
507.500000	0.230431
508.500000	0.227518
509.500000	0.224701
510.500000	0.221979
511.500000	0.219349
512.500000	0.216807
513.500000	0.214353
514.500000	0.211983
515.500000	0.209694
516.500000	0.207486
517.500000	0.205354
518.500000	0.203297
519.500000	0.201312
520.500000	0.199397
521.500000	0.197551
522.500000	0.195770
523.500000	0.194053
524.500000	0.192398
525.500000	0.190802
526.500000	0.189264
527.500000	0.187782
528.500000	0.186353
529.500000	0.184977
530.500000	0.183651
531.500000	0.182374
532.500000	0.181144
533.500000	0.179959
534.500000	0.178818
535.500000	0.177719
536.500000	0.176661
537.500000	0.175642
538.500000	0.174661
539.500000	0.173717
540.500000	0.172808
541.500000	0.171934
542.500000	0.171092
543.500000	0.170281
544.500000	0.169502
545.500000	0.168751
546.500000	0.168029
547.500000	0.167335
548.500000	0.166666
549.500000	0.166023
550.500000	0.165405
551.500000	0.164810
552.500000	0.164237
553.500000	0.163687
554.500000	0.163157
555.500000	0.162648
556.500000	0.162158
557.500000	0.161687
558.500000	0.161234
559.500000	0.160798
560.500000	0.160379
561.500000	0.159976
562.500000	0.159589
563.500000	0.159217
564.500000	0.158858
565.500000	0.158514
566.500000	0.158183
567.500000	0.157865
568.500000	0.157559
569.500000	0.157264
570.500000	0.156982
571.500000	0.156710
572.500000	0.156448
573.500000	0.156197
574.500000	0.155956
575.500000	0.155723
576.500000	0.155500
577.500000	0.155286
578.500000	0.155080
579.500000	0.154881
580.500000	0.154691
581.500000	0.154508
582.500000	0.154332
583.500000	0.154163
584.500000	0.154000
585.500000	0.153844
586.500000	0.153694
587.500000	0.153549
588.500000	0.153411
589.500000	0.153277
590.500000	0.153149
591.500000	0.153026
592.500000	0.152908
593.500000	0.152794
594.500000	0.152685
595.500000	0.152580
596.500000	0.152479
597.500000	0.152382
598.500000	0.152289
599.500000	0.152199
600.500000	0.152113
601.500000	0.152031
602.500000	0.151951
603.500000	0.151875
604.500000	0.151801
605.500000	0.151731
606.500000	0.151663
607.500000	0.151598
608.500000	0.151536
609.500000	0.151475
610.500000	0.151418
611.500000	0.151362
612.500000	0.151309
613.500000	0.151258
614.500000	0.151208
615.500000	0.151161
616.500000	0.151115
617.500000	0.151072
618.500000	0.151030
619.500000	0.150989
620.500000	0.150951
621.500000	0.150913
622.500000	0.150878
623.500000	0.150843
624.500000	0.150810
625.500000	0.150779
626.500000	0.150748
627.500000	0.150719
628.500000	0.150691
629.500000	0.150663
630.500000	0.150637
631.500000	0.150613
632.500000	0.150589
633.500000	0.150565
634.500000	0.150543
635.500000	0.150522
636.500000	0.150502
637.500000	0.150482
638.500000	0.150463
639.500000	0.150445
640.500000	0.150427
641.500000	0.150411
642.500000	0.150395
643.500000	0.150379
644.500000	0.150364
645.500000	0.150350
646.500000	0.150336
647.500000	0.150323
648.500000	0.150310
649.500000	0.150298
650.500000	0.150287
651.500000	0.150275
652.500000	0.150265
653.500000	0.150254
654.500000	0.150244
655.500000	0.150235
656.500000	0.150225
657.500000	0.150217
658.500000	0.150208
659.500000	0.150200
660.500000	0.150192
661.500000	0.150185
662.500000	0.150177
663.500000	0.150170
664.500000	0.150164
665.500000	0.150157
666.500000	0.150151
667.500000	0.150145
668.500000	0.150139
669.500000	0.150134
670.500000	0.150129
671.500000	0.150124
672.500000	0.150119
673.500000	0.150114
674.500000	0.150110
675.500000	0.150105
676.500000	0.150101
677.500000	0.150097
678.500000	0.150094
679.500000	0.150090
680.500000	0.150086
681.500000	0.150083
682.500000	0.150080
683.500000	0.150077
684.500000	0.150074
685.500000	0.150071
686.500000	0.150068
687.500000	0.150065
688.500000	0.150063
689.500000	0.150060
690.500000	0.150058
691.500000	0.150056
692.500000	0.150054
693.500000	0.150051
694.500000	0.150050
695.500000	0.150048
696.500000	0.150046
697.500000	0.150044
698.500000	0.150043
699.500000	0.150042
