# Profil de Te au temps 1.809999999999995e-12 
# simu : /Volumes/MERCURE/JOBS/tanh_50mic_Zeq10_B0/GNU/Te@y-c.set
# col 0 : abscisse (um)
# col 1 : Te (keV)
0.500000	1.000000
1.500000	1.000000
2.500000	1.000000
3.500000	1.000000
4.500000	1.000000
5.500000	1.000000
6.500000	1.000000
7.500000	1.000000
8.500000	1.000000
9.500000	1.000000
10.500000	1.000000
11.500000	1.000000
12.500000	1.000000
13.500000	1.000000
14.500000	1.000000
15.500000	1.000000
16.500000	1.000000
17.500000	1.000000
18.500000	1.000000
19.500000	1.000000
20.500000	1.000000
21.500000	1.000000
22.500000	1.000000
23.500000	1.000000
24.500000	1.000000
25.500000	1.000000
26.500000	1.000000
27.500000	1.000000
28.500000	1.000000
29.500000	1.000000
30.500000	1.000000
31.500000	1.000000
32.500000	1.000000
33.500000	1.000000
34.500000	1.000000
35.500000	1.000000
36.500000	1.000000
37.500000	1.000000
38.500000	1.000000
39.500000	1.000000
40.500000	1.000000
41.500000	1.000000
42.500000	1.000000
43.500000	1.000000
44.500000	1.000000
45.500000	1.000000
46.500000	1.000000
47.500000	1.000000
48.500000	1.000000
49.500000	1.000000
50.500000	1.000000
51.500000	1.000000
52.500000	1.000000
53.500000	1.000000
54.500000	1.000000
55.500000	1.000000
56.500000	1.000000
57.500000	1.000000
58.500000	1.000000
59.500000	1.000000
60.500000	1.000000
61.500000	1.000000
62.500000	1.000000
63.500000	1.000000
64.500000	1.000000
65.500000	1.000000
66.500000	1.000000
67.500000	1.000000
68.500000	1.000000
69.500000	1.000000
70.500000	1.000000
71.500000	1.000000
72.500000	1.000000
73.500000	1.000000
74.500000	1.000000
75.500000	1.000000
76.500000	1.000000
77.500000	1.000000
78.500000	1.000000
79.500000	1.000000
80.500000	1.000000
81.500000	1.000000
82.500000	0.999999
83.500000	0.999999
84.500000	0.999999
85.500000	0.999999
86.500000	0.999999
87.500000	0.999999
88.500000	0.999999
89.500000	0.999999
90.500000	0.999999
91.500000	0.999999
92.500000	0.999999
93.500000	0.999999
94.500000	0.999999
95.500000	0.999999
96.500000	0.999999
97.500000	0.999999
98.500000	0.999999
99.500000	0.999999
100.500000	0.999999
101.500000	0.999999
102.500000	0.999999
103.500000	0.999999
104.500000	0.999999
105.500000	0.999999
106.500000	0.999999
107.500000	0.999999
108.500000	0.999999
109.500000	0.999999
110.500000	0.999998
111.500000	0.999998
112.500000	0.999998
113.500000	0.999998
114.500000	0.999998
115.500000	0.999998
116.500000	0.999998
117.500000	0.999998
118.500000	0.999998
119.500000	0.999998
120.500000	0.999998
121.500000	0.999998
122.500000	0.999997
123.500000	0.999997
124.500000	0.999997
125.500000	0.999997
126.500000	0.999997
127.500000	0.999997
128.500000	0.999997
129.500000	0.999997
130.500000	0.999997
131.500000	0.999996
132.500000	0.999996
133.500000	0.999996
134.500000	0.999996
135.500000	0.999996
136.500000	0.999996
137.500000	0.999995
138.500000	0.999995
139.500000	0.999995
140.500000	0.999995
141.500000	0.999995
142.500000	0.999994
143.500000	0.999994
144.500000	0.999994
145.500000	0.999994
146.500000	0.999993
147.500000	0.999993
148.500000	0.999993
149.500000	0.999993
150.500000	0.999992
151.500000	0.999992
152.500000	0.999992
153.500000	0.999991
154.500000	0.999991
155.500000	0.999991
156.500000	0.999990
157.500000	0.999990
158.500000	0.999989
159.500000	0.999989
160.500000	0.999989
161.500000	0.999988
162.500000	0.999988
163.500000	0.999987
164.500000	0.999987
165.500000	0.999986
166.500000	0.999985
167.500000	0.999985
168.500000	0.999984
169.500000	0.999984
170.500000	0.999983
171.500000	0.999982
172.500000	0.999981
173.500000	0.999981
174.500000	0.999980
175.500000	0.999979
176.500000	0.999978
177.500000	0.999977
178.500000	0.999976
179.500000	0.999975
180.500000	0.999974
181.500000	0.999973
182.500000	0.999972
183.500000	0.999971
184.500000	0.999970
185.500000	0.999969
186.500000	0.999967
187.500000	0.999966
188.500000	0.999965
189.500000	0.999963
190.500000	0.999962
191.500000	0.999960
192.500000	0.999959
193.500000	0.999957
194.500000	0.999955
195.500000	0.999953
196.500000	0.999951
197.500000	0.999949
198.500000	0.999947
199.500000	0.999945
200.500000	0.999943
201.500000	0.999941
202.500000	0.999938
203.500000	0.999936
204.500000	0.999933
205.500000	0.999930
206.500000	0.999928
207.500000	0.999925
208.500000	0.999922
209.500000	0.999918
210.500000	0.999915
211.500000	0.999912
212.500000	0.999908
213.500000	0.999904
214.500000	0.999900
215.500000	0.999896
216.500000	0.999892
217.500000	0.999888
218.500000	0.999883
219.500000	0.999878
220.500000	0.999873
221.500000	0.999868
222.500000	0.999863
223.500000	0.999857
224.500000	0.999851
225.500000	0.999845
226.500000	0.999839
227.500000	0.999832
228.500000	0.999826
229.500000	0.999818
230.500000	0.999811
231.500000	0.999803
232.500000	0.999795
233.500000	0.999787
234.500000	0.999778
235.500000	0.999769
236.500000	0.999760
237.500000	0.999750
238.500000	0.999740
239.500000	0.999729
240.500000	0.999718
241.500000	0.999707
242.500000	0.999695
243.500000	0.999682
244.500000	0.999670
245.500000	0.999656
246.500000	0.999642
247.500000	0.999627
248.500000	0.999612
249.500000	0.999597
250.500000	0.999580
251.500000	0.999563
252.500000	0.999545
253.500000	0.999527
254.500000	0.999507
255.500000	0.999487
256.500000	0.999466
257.500000	0.999445
258.500000	0.999422
259.500000	0.999399
260.500000	0.999374
261.500000	0.999349
262.500000	0.999322
263.500000	0.999295
264.500000	0.999266
265.500000	0.999236
266.500000	0.999205
267.500000	0.999173
268.500000	0.999139
269.500000	0.999104
270.500000	0.999068
271.500000	0.999030
272.500000	0.998991
273.500000	0.998950
274.500000	0.998907
275.500000	0.998863
276.500000	0.998817
277.500000	0.998769
278.500000	0.998719
279.500000	0.998667
280.500000	0.998613
281.500000	0.998557
282.500000	0.998498
283.500000	0.998437
284.500000	0.998374
285.500000	0.998308
286.500000	0.998240
287.500000	0.998169
288.500000	0.998095
289.500000	0.998018
290.500000	0.997938
291.500000	0.997855
292.500000	0.997768
293.500000	0.997678
294.500000	0.997585
295.500000	0.997487
296.500000	0.997386
297.500000	0.997281
298.500000	0.997171
299.500000	0.997058
300.500000	0.996940
301.500000	0.996817
302.500000	0.996689
303.500000	0.996556
304.500000	0.996418
305.500000	0.996275
306.500000	0.996125
307.500000	0.995970
308.500000	0.995809
309.500000	0.995642
310.500000	0.995468
311.500000	0.995287
312.500000	0.995100
313.500000	0.994905
314.500000	0.994702
315.500000	0.994491
316.500000	0.994273
317.500000	0.994046
318.500000	0.993810
319.500000	0.993565
320.500000	0.993311
321.500000	0.993046
322.500000	0.992772
323.500000	0.992488
324.500000	0.992192
325.500000	0.991885
326.500000	0.991567
327.500000	0.991237
328.500000	0.990894
329.500000	0.990538
330.500000	0.990169
331.500000	0.989786
332.500000	0.989388
333.500000	0.988976
334.500000	0.988549
335.500000	0.988106
336.500000	0.987646
337.500000	0.987170
338.500000	0.986676
339.500000	0.986164
340.500000	0.985633
341.500000	0.985083
342.500000	0.984514
343.500000	0.983923
344.500000	0.983312
345.500000	0.982678
346.500000	0.982022
347.500000	0.981343
348.500000	0.980640
349.500000	0.979911
350.500000	0.979158
351.500000	0.978378
352.500000	0.977570
353.500000	0.976735
354.500000	0.975871
355.500000	0.974977
356.500000	0.974052
357.500000	0.973096
358.500000	0.972108
359.500000	0.971086
360.500000	0.970030
361.500000	0.968939
362.500000	0.967811
363.500000	0.966646
364.500000	0.965442
365.500000	0.964199
366.500000	0.962916
367.500000	0.961590
368.500000	0.960222
369.500000	0.958810
370.500000	0.957353
371.500000	0.955850
372.500000	0.954299
373.500000	0.952699
374.500000	0.951050
375.500000	0.949349
376.500000	0.947596
377.500000	0.945788
378.500000	0.943926
379.500000	0.942007
380.500000	0.940030
381.500000	0.937994
382.500000	0.935897
383.500000	0.933739
384.500000	0.931517
385.500000	0.929230
386.500000	0.926876
387.500000	0.924455
388.500000	0.921965
389.500000	0.919404
390.500000	0.916770
391.500000	0.914063
392.500000	0.911281
393.500000	0.908422
394.500000	0.905485
395.500000	0.902468
396.500000	0.899370
397.500000	0.896189
398.500000	0.892924
399.500000	0.889574
400.500000	0.886136
401.500000	0.882610
402.500000	0.878994
403.500000	0.875287
404.500000	0.871487
405.500000	0.867593
406.500000	0.863604
407.500000	0.859518
408.500000	0.855335
409.500000	0.851052
410.500000	0.846670
411.500000	0.842186
412.500000	0.837601
413.500000	0.832912
414.500000	0.828120
415.500000	0.823223
416.500000	0.818220
417.500000	0.813112
418.500000	0.807898
419.500000	0.802577
420.500000	0.797149
421.500000	0.791614
422.500000	0.785972
423.500000	0.780223
424.500000	0.774367
425.500000	0.768404
426.500000	0.762336
427.500000	0.756162
428.500000	0.749884
429.500000	0.743503
430.500000	0.737020
431.500000	0.730436
432.500000	0.723752
433.500000	0.716971
434.500000	0.710094
435.500000	0.703124
436.500000	0.696062
437.500000	0.688912
438.500000	0.681675
439.500000	0.674356
440.500000	0.666956
441.500000	0.659479
442.500000	0.651929
443.500000	0.644310
444.500000	0.636625
445.500000	0.628878
446.500000	0.621074
447.500000	0.613217
448.500000	0.605312
449.500000	0.597363
450.500000	0.589376
451.500000	0.581356
452.500000	0.573307
453.500000	0.565236
454.500000	0.557148
455.500000	0.549049
456.500000	0.540943
457.500000	0.532838
458.500000	0.524739
459.500000	0.516652
460.500000	0.508583
461.500000	0.500537
462.500000	0.492522
463.500000	0.484543
464.500000	0.476605
465.500000	0.468715
466.500000	0.460879
467.500000	0.453103
468.500000	0.445391
469.500000	0.437750
470.500000	0.430185
471.500000	0.422701
472.500000	0.415304
473.500000	0.407997
474.500000	0.400787
475.500000	0.393676
476.500000	0.386670
477.500000	0.379773
478.500000	0.372988
479.500000	0.366318
480.500000	0.359767
481.500000	0.353338
482.500000	0.347033
483.500000	0.340855
484.500000	0.334806
485.500000	0.328887
486.500000	0.323101
487.500000	0.317447
488.500000	0.311928
489.500000	0.306543
490.500000	0.301294
491.500000	0.296179
492.500000	0.291199
493.500000	0.286354
494.500000	0.281643
495.500000	0.277065
496.500000	0.272618
497.500000	0.268302
498.500000	0.264114
499.500000	0.260054
500.500000	0.256119
501.500000	0.252307
502.500000	0.248616
503.500000	0.245043
504.500000	0.241587
505.500000	0.238245
506.500000	0.235014
507.500000	0.231892
508.500000	0.228876
509.500000	0.225962
510.500000	0.223150
511.500000	0.220435
512.500000	0.217814
513.500000	0.215286
514.500000	0.212848
515.500000	0.210496
516.500000	0.208228
517.500000	0.206042
518.500000	0.203934
519.500000	0.201903
520.500000	0.199945
521.500000	0.198059
522.500000	0.196241
523.500000	0.194491
524.500000	0.192804
525.500000	0.191179
526.500000	0.189615
527.500000	0.188108
528.500000	0.186657
529.500000	0.185260
530.500000	0.183915
531.500000	0.182620
532.500000	0.181373
533.500000	0.180173
534.500000	0.179018
535.500000	0.177906
536.500000	0.176836
537.500000	0.175806
538.500000	0.174815
539.500000	0.173861
540.500000	0.172944
541.500000	0.172061
542.500000	0.171211
543.500000	0.170394
544.500000	0.169607
545.500000	0.168851
546.500000	0.168123
547.500000	0.167423
548.500000	0.166750
549.500000	0.166102
550.500000	0.165479
551.500000	0.164880
552.500000	0.164304
553.500000	0.163750
554.500000	0.163217
555.500000	0.162704
556.500000	0.162212
557.500000	0.161738
558.500000	0.161282
559.500000	0.160844
560.500000	0.160423
561.500000	0.160017
562.500000	0.159628
563.500000	0.159254
564.500000	0.158894
565.500000	0.158548
566.500000	0.158215
567.500000	0.157895
568.500000	0.157588
569.500000	0.157292
570.500000	0.157008
571.500000	0.156735
572.500000	0.156472
573.500000	0.156220
574.500000	0.155977
575.500000	0.155744
576.500000	0.155520
577.500000	0.155305
578.500000	0.155098
579.500000	0.154899
580.500000	0.154707
581.500000	0.154523
582.500000	0.154347
583.500000	0.154177
584.500000	0.154014
585.500000	0.153857
586.500000	0.153706
587.500000	0.153561
588.500000	0.153422
589.500000	0.153288
590.500000	0.153160
591.500000	0.153036
592.500000	0.152918
593.500000	0.152803
594.500000	0.152694
595.500000	0.152588
596.500000	0.152487
597.500000	0.152390
598.500000	0.152296
599.500000	0.152206
600.500000	0.152120
601.500000	0.152037
602.500000	0.151957
603.500000	0.151881
604.500000	0.151807
605.500000	0.151736
606.500000	0.151668
607.500000	0.151603
608.500000	0.151540
609.500000	0.151480
610.500000	0.151422
611.500000	0.151366
612.500000	0.151313
613.500000	0.151261
614.500000	0.151212
615.500000	0.151165
616.500000	0.151119
617.500000	0.151075
618.500000	0.151033
619.500000	0.150993
620.500000	0.150954
621.500000	0.150916
622.500000	0.150880
623.500000	0.150846
624.500000	0.150813
625.500000	0.150781
626.500000	0.150750
627.500000	0.150721
628.500000	0.150693
629.500000	0.150666
630.500000	0.150639
631.500000	0.150614
632.500000	0.150590
633.500000	0.150567
634.500000	0.150545
635.500000	0.150524
636.500000	0.150503
637.500000	0.150483
638.500000	0.150464
639.500000	0.150446
640.500000	0.150429
641.500000	0.150412
642.500000	0.150396
643.500000	0.150380
644.500000	0.150365
645.500000	0.150351
646.500000	0.150337
647.500000	0.150324
648.500000	0.150311
649.500000	0.150299
650.500000	0.150287
651.500000	0.150276
652.500000	0.150265
653.500000	0.150255
654.500000	0.150245
655.500000	0.150235
656.500000	0.150226
657.500000	0.150217
658.500000	0.150209
659.500000	0.150201
660.500000	0.150193
661.500000	0.150185
662.500000	0.150178
663.500000	0.150171
664.500000	0.150164
665.500000	0.150158
666.500000	0.150152
667.500000	0.150146
668.500000	0.150140
669.500000	0.150134
670.500000	0.150129
671.500000	0.150124
672.500000	0.150119
673.500000	0.150115
674.500000	0.150110
675.500000	0.150106
676.500000	0.150102
677.500000	0.150098
678.500000	0.150094
679.500000	0.150090
680.500000	0.150087
681.500000	0.150083
682.500000	0.150080
683.500000	0.150077
684.500000	0.150074
685.500000	0.150071
686.500000	0.150068
687.500000	0.150065
688.500000	0.150063
689.500000	0.150060
690.500000	0.150058
691.500000	0.150056
692.500000	0.150054
693.500000	0.150052
694.500000	0.150050
695.500000	0.150048
696.500000	0.150046
697.500000	0.150045
698.500000	0.150044
699.500000	0.150043
