# Profil de Te au temps 2.000999999999940e-11 
# simu : /Volumes/MERCURE/JOBS/4milan_5e19_Z10/GNU/Te@y-c.set
# col 0 : abscisse (um)
# col 1 : Te (keV)
0.500000	0.966096
1.500000	0.966095
2.500000	0.966094
3.500000	0.966091
4.500000	0.966088
5.500000	0.966084
6.500000	0.966079
7.500000	0.966073
8.500000	0.966067
9.500000	0.966060
10.500000	0.966051
11.500000	0.966042
12.500000	0.966032
13.500000	0.966022
14.500000	0.966010
15.500000	0.965998
16.500000	0.965985
17.500000	0.965971
18.500000	0.965956
19.500000	0.965941
20.500000	0.965924
21.500000	0.965907
22.500000	0.965889
23.500000	0.965870
24.500000	0.965850
25.500000	0.965830
26.500000	0.965808
27.500000	0.965786
28.500000	0.965763
29.500000	0.965739
30.500000	0.965714
31.500000	0.965688
32.500000	0.965662
33.500000	0.965635
34.500000	0.965607
35.500000	0.965578
36.500000	0.965548
37.500000	0.965517
38.500000	0.965485
39.500000	0.965453
40.500000	0.965420
41.500000	0.965386
42.500000	0.965350
43.500000	0.965315
44.500000	0.965278
45.500000	0.965240
46.500000	0.965202
47.500000	0.965162
48.500000	0.965122
49.500000	0.965081
50.500000	0.965039
51.500000	0.964996
52.500000	0.964952
53.500000	0.964908
54.500000	0.964862
55.500000	0.964816
56.500000	0.964768
57.500000	0.964720
58.500000	0.964671
59.500000	0.964621
60.500000	0.964570
61.500000	0.964518
62.500000	0.964465
63.500000	0.964411
64.500000	0.964357
65.500000	0.964301
66.500000	0.964245
67.500000	0.964187
68.500000	0.964129
69.500000	0.964069
70.500000	0.964009
71.500000	0.963948
72.500000	0.963886
73.500000	0.963822
74.500000	0.963758
75.500000	0.963693
76.500000	0.963627
77.500000	0.963560
78.500000	0.963492
79.500000	0.963423
80.500000	0.963353
81.500000	0.963282
82.500000	0.963210
83.500000	0.963137
84.500000	0.963063
85.500000	0.962988
86.500000	0.962912
87.500000	0.962835
88.500000	0.962757
89.500000	0.962678
90.500000	0.962598
91.500000	0.962517
92.500000	0.962434
93.500000	0.962351
94.500000	0.962267
95.500000	0.962182
96.500000	0.962095
97.500000	0.962008
98.500000	0.961919
99.500000	0.961829
100.500000	0.961739
101.500000	0.961647
102.500000	0.961554
103.500000	0.961460
104.500000	0.961365
105.500000	0.961268
106.500000	0.961171
107.500000	0.961072
108.500000	0.960973
109.500000	0.960872
110.500000	0.960770
111.500000	0.960667
112.500000	0.960563
113.500000	0.960457
114.500000	0.960351
115.500000	0.960243
116.500000	0.960134
117.500000	0.960024
118.500000	0.959912
119.500000	0.959800
120.500000	0.959686
121.500000	0.959571
122.500000	0.959454
123.500000	0.959337
124.500000	0.959218
125.500000	0.959098
126.500000	0.958977
127.500000	0.958854
128.500000	0.958730
129.500000	0.958605
130.500000	0.958479
131.500000	0.958351
132.500000	0.958222
133.500000	0.958092
134.500000	0.957960
135.500000	0.957827
136.500000	0.957692
137.500000	0.957557
138.500000	0.957419
139.500000	0.957281
140.500000	0.957141
141.500000	0.957000
142.500000	0.956857
143.500000	0.956713
144.500000	0.956567
145.500000	0.956420
146.500000	0.956272
147.500000	0.956122
148.500000	0.955971
149.500000	0.955818
150.500000	0.955663
151.500000	0.955507
152.500000	0.955350
153.500000	0.955191
154.500000	0.955031
155.500000	0.954869
156.500000	0.954705
157.500000	0.954540
158.500000	0.954374
159.500000	0.954205
160.500000	0.954035
161.500000	0.953864
162.500000	0.953691
163.500000	0.953516
164.500000	0.953340
165.500000	0.953162
166.500000	0.952982
167.500000	0.952800
168.500000	0.952617
169.500000	0.952432
170.500000	0.952246
171.500000	0.952057
172.500000	0.951867
173.500000	0.951675
174.500000	0.951482
175.500000	0.951286
176.500000	0.951089
177.500000	0.950890
178.500000	0.950688
179.500000	0.950486
180.500000	0.950281
181.500000	0.950074
182.500000	0.949866
183.500000	0.949655
184.500000	0.949443
185.500000	0.949228
186.500000	0.949012
187.500000	0.948793
188.500000	0.948573
189.500000	0.948350
190.500000	0.948126
191.500000	0.947899
192.500000	0.947671
193.500000	0.947440
194.500000	0.947207
195.500000	0.946972
196.500000	0.946735
197.500000	0.946496
198.500000	0.946254
199.500000	0.946010
200.500000	0.945765
201.500000	0.945516
202.500000	0.945266
203.500000	0.945013
204.500000	0.944758
205.500000	0.944501
206.500000	0.944241
207.500000	0.943979
208.500000	0.943714
209.500000	0.943447
210.500000	0.943178
211.500000	0.942906
212.500000	0.942631
213.500000	0.942355
214.500000	0.942075
215.500000	0.941793
216.500000	0.941509
217.500000	0.941222
218.500000	0.940932
219.500000	0.940639
220.500000	0.940344
221.500000	0.940046
222.500000	0.939746
223.500000	0.939443
224.500000	0.939137
225.500000	0.938828
226.500000	0.938516
227.500000	0.938201
228.500000	0.937884
229.500000	0.937564
230.500000	0.937240
231.500000	0.936914
232.500000	0.936585
233.500000	0.936253
234.500000	0.935917
235.500000	0.935579
236.500000	0.935237
237.500000	0.934892
238.500000	0.934544
239.500000	0.934193
240.500000	0.933839
241.500000	0.933481
242.500000	0.933120
243.500000	0.932756
244.500000	0.932388
245.500000	0.932017
246.500000	0.931642
247.500000	0.931264
248.500000	0.930882
249.500000	0.930497
250.500000	0.930108
251.500000	0.929716
252.500000	0.929320
253.500000	0.928920
254.500000	0.928516
255.500000	0.928109
256.500000	0.927698
257.500000	0.927282
258.500000	0.926863
259.500000	0.926440
260.500000	0.926013
261.500000	0.925582
262.500000	0.925147
263.500000	0.924707
264.500000	0.924264
265.500000	0.923816
266.500000	0.923364
267.500000	0.922907
268.500000	0.922446
269.500000	0.921981
270.500000	0.921511
271.500000	0.921037
272.500000	0.920558
273.500000	0.920074
274.500000	0.919586
275.500000	0.919092
276.500000	0.918595
277.500000	0.918092
278.500000	0.917584
279.500000	0.917071
280.500000	0.916553
281.500000	0.916030
282.500000	0.915502
283.500000	0.914969
284.500000	0.914430
285.500000	0.913886
286.500000	0.913336
287.500000	0.912781
288.500000	0.912221
289.500000	0.911654
290.500000	0.911082
291.500000	0.910505
292.500000	0.909921
293.500000	0.909331
294.500000	0.908736
295.500000	0.908134
296.500000	0.907526
297.500000	0.906912
298.500000	0.906292
299.500000	0.905665
300.500000	0.905031
301.500000	0.904391
302.500000	0.903745
303.500000	0.903091
304.500000	0.902431
305.500000	0.901764
306.500000	0.901090
307.500000	0.900409
308.500000	0.899720
309.500000	0.899024
310.500000	0.898321
311.500000	0.897610
312.500000	0.896892
313.500000	0.896166
314.500000	0.895432
315.500000	0.894690
316.500000	0.893940
317.500000	0.893182
318.500000	0.892416
319.500000	0.891641
320.500000	0.890858
321.500000	0.890067
322.500000	0.889266
323.500000	0.888457
324.500000	0.887639
325.500000	0.886812
326.500000	0.885975
327.500000	0.885130
328.500000	0.884275
329.500000	0.883410
330.500000	0.882535
331.500000	0.881651
332.500000	0.880757
333.500000	0.879852
334.500000	0.878938
335.500000	0.878012
336.500000	0.877077
337.500000	0.876131
338.500000	0.875173
339.500000	0.874205
340.500000	0.873226
341.500000	0.872235
342.500000	0.871233
343.500000	0.870219
344.500000	0.869194
345.500000	0.868157
346.500000	0.867107
347.500000	0.866045
348.500000	0.864971
349.500000	0.863884
350.500000	0.862785
351.500000	0.861672
352.500000	0.860546
353.500000	0.859407
354.500000	0.858255
355.500000	0.857089
356.500000	0.855909
357.500000	0.854715
358.500000	0.853506
359.500000	0.852284
360.500000	0.851046
361.500000	0.849794
362.500000	0.848527
363.500000	0.847245
364.500000	0.845947
365.500000	0.844633
366.500000	0.843304
367.500000	0.841959
368.500000	0.840598
369.500000	0.839220
370.500000	0.837825
371.500000	0.836414
372.500000	0.834986
373.500000	0.833540
374.500000	0.832077
375.500000	0.830596
376.500000	0.829097
377.500000	0.827580
378.500000	0.826045
379.500000	0.824491
380.500000	0.822919
381.500000	0.821327
382.500000	0.819716
383.500000	0.818086
384.500000	0.816436
385.500000	0.814766
386.500000	0.813076
387.500000	0.811365
388.500000	0.809634
389.500000	0.807883
390.500000	0.806110
391.500000	0.804316
392.500000	0.802500
393.500000	0.800663
394.500000	0.798804
395.500000	0.796923
396.500000	0.795020
397.500000	0.793094
398.500000	0.791145
399.500000	0.789174
400.500000	0.787179
401.500000	0.785161
402.500000	0.783119
403.500000	0.781054
404.500000	0.778965
405.500000	0.776851
406.500000	0.774713
407.500000	0.772551
408.500000	0.770364
409.500000	0.768153
410.500000	0.765916
411.500000	0.763654
412.500000	0.761367
413.500000	0.759054
414.500000	0.756715
415.500000	0.754351
416.500000	0.751961
417.500000	0.749545
418.500000	0.747102
419.500000	0.744634
420.500000	0.742139
421.500000	0.739617
422.500000	0.737069
423.500000	0.734494
424.500000	0.731893
425.500000	0.729265
426.500000	0.726609
427.500000	0.723927
428.500000	0.721218
429.500000	0.718482
430.500000	0.715719
431.500000	0.712929
432.500000	0.710112
433.500000	0.707268
434.500000	0.704397
435.500000	0.701499
436.500000	0.698575
437.500000	0.695623
438.500000	0.692645
439.500000	0.689640
440.500000	0.686608
441.500000	0.683550
442.500000	0.680466
443.500000	0.677356
444.500000	0.674219
445.500000	0.671057
446.500000	0.667869
447.500000	0.664656
448.500000	0.661417
449.500000	0.658153
450.500000	0.654864
451.500000	0.651551
452.500000	0.648214
453.500000	0.644852
454.500000	0.641467
455.500000	0.638059
456.500000	0.634627
457.500000	0.631173
458.500000	0.627696
459.500000	0.624197
460.500000	0.620677
461.500000	0.617135
462.500000	0.613573
463.500000	0.609991
464.500000	0.606388
465.500000	0.602766
466.500000	0.599125
467.500000	0.595466
468.500000	0.591789
469.500000	0.588095
470.500000	0.584383
471.500000	0.580656
472.500000	0.576913
473.500000	0.573154
474.500000	0.569382
475.500000	0.565595
476.500000	0.561796
477.500000	0.557984
478.500000	0.554160
479.500000	0.550325
480.500000	0.546479
481.500000	0.542624
482.500000	0.538760
483.500000	0.534888
484.500000	0.531008
485.500000	0.527122
486.500000	0.523230
487.500000	0.519333
488.500000	0.515431
489.500000	0.511527
490.500000	0.507620
491.500000	0.503712
492.500000	0.499802
493.500000	0.495894
494.500000	0.491986
495.500000	0.488080
496.500000	0.484178
497.500000	0.480279
498.500000	0.476386
499.500000	0.472498
500.500000	0.468617
501.500000	0.464744
502.500000	0.460880
503.500000	0.457026
504.500000	0.453183
505.500000	0.449352
506.500000	0.445534
507.500000	0.441730
508.500000	0.437941
509.500000	0.434168
510.500000	0.430412
511.500000	0.426674
512.500000	0.422956
513.500000	0.419257
514.500000	0.415580
515.500000	0.411925
516.500000	0.408293
517.500000	0.404685
518.500000	0.401102
519.500000	0.397546
520.500000	0.394016
521.500000	0.390515
522.500000	0.387042
523.500000	0.383599
524.500000	0.380186
525.500000	0.376805
526.500000	0.373456
527.500000	0.370140
528.500000	0.366858
529.500000	0.363610
530.500000	0.360398
531.500000	0.357221
532.500000	0.354081
533.500000	0.350977
534.500000	0.347911
535.500000	0.344884
536.500000	0.341895
537.500000	0.338945
538.500000	0.336034
539.500000	0.333163
540.500000	0.330332
541.500000	0.327541
542.500000	0.324791
543.500000	0.322082
544.500000	0.319414
545.500000	0.316787
546.500000	0.314201
547.500000	0.311656
548.500000	0.309153
549.500000	0.306690
550.500000	0.304269
551.500000	0.301889
552.500000	0.299550
553.500000	0.297251
554.500000	0.294993
555.500000	0.292775
556.500000	0.290597
557.500000	0.288459
558.500000	0.286361
559.500000	0.284302
560.500000	0.282281
561.500000	0.280299
562.500000	0.278355
563.500000	0.276448
564.500000	0.274579
565.500000	0.272746
566.500000	0.270949
567.500000	0.269189
568.500000	0.267463
569.500000	0.265772
570.500000	0.264116
571.500000	0.262493
572.500000	0.260903
573.500000	0.259347
574.500000	0.257822
575.500000	0.256329
576.500000	0.254867
577.500000	0.253435
578.500000	0.252034
579.500000	0.250662
580.500000	0.249319
581.500000	0.248004
582.500000	0.246717
583.500000	0.245457
584.500000	0.244224
585.500000	0.243018
586.500000	0.241837
587.500000	0.240681
588.500000	0.239550
589.500000	0.238443
590.500000	0.237360
591.500000	0.236299
592.500000	0.235262
593.500000	0.234247
594.500000	0.233254
595.500000	0.232282
596.500000	0.231330
597.500000	0.230400
598.500000	0.229489
599.500000	0.228598
600.500000	0.227725
601.500000	0.226872
602.500000	0.226037
603.500000	0.225219
604.500000	0.224420
605.500000	0.223637
606.500000	0.222871
607.500000	0.222122
608.500000	0.221388
609.500000	0.220671
610.500000	0.219968
611.500000	0.219281
612.500000	0.218608
613.500000	0.217950
614.500000	0.217306
615.500000	0.216676
616.500000	0.216059
617.500000	0.215456
618.500000	0.214865
619.500000	0.214287
620.500000	0.213722
621.500000	0.213168
622.500000	0.212627
623.500000	0.212097
624.500000	0.211579
625.500000	0.211072
626.500000	0.210576
627.500000	0.210090
628.500000	0.209615
629.500000	0.209151
630.500000	0.208697
631.500000	0.208252
632.500000	0.207818
633.500000	0.207393
634.500000	0.206977
635.500000	0.206571
636.500000	0.206174
637.500000	0.205786
638.500000	0.205406
639.500000	0.205035
640.500000	0.204673
641.500000	0.204319
642.500000	0.203973
643.500000	0.203635
644.500000	0.203305
645.500000	0.202983
646.500000	0.202669
647.500000	0.202362
648.500000	0.202062
649.500000	0.201770
650.500000	0.201485
651.500000	0.201208
652.500000	0.200937
653.500000	0.200673
654.500000	0.200416
655.500000	0.200166
656.500000	0.199922
657.500000	0.199685
658.500000	0.199455
659.500000	0.199231
660.500000	0.199013
661.500000	0.198801
662.500000	0.198596
663.500000	0.198397
664.500000	0.198204
665.500000	0.198017
666.500000	0.197835
667.500000	0.197660
668.500000	0.197491
669.500000	0.197327
670.500000	0.197169
671.500000	0.197017
672.500000	0.196870
673.500000	0.196729
674.500000	0.196594
675.500000	0.196464
676.500000	0.196339
677.500000	0.196220
678.500000	0.196107
679.500000	0.195998
680.500000	0.195895
681.500000	0.195798
682.500000	0.195705
683.500000	0.195618
684.500000	0.195536
685.500000	0.195460
686.500000	0.195388
687.500000	0.195322
688.500000	0.195261
689.500000	0.195205
690.500000	0.195154
691.500000	0.195108
692.500000	0.195068
693.500000	0.195032
694.500000	0.195002
695.500000	0.194977
696.500000	0.194956
697.500000	0.194941
698.500000	0.194931
699.500000	0.194926
