# Profil de Te au temps 2.000999999999940e-11 
# simu : /Volumes/MERCURE/JOBS/4milan_5e19_Z2/GNU/Te@y-c.set
# col 0 : abscisse (um)
# col 1 : Te (keV)
0.500000	0.950814
1.500000	0.950812
2.500000	0.950808
3.500000	0.950803
4.500000	0.950796
5.500000	0.950787
6.500000	0.950776
7.500000	0.950763
8.500000	0.950748
9.500000	0.950732
10.500000	0.950714
11.500000	0.950694
12.500000	0.950672
13.500000	0.950648
14.500000	0.950622
15.500000	0.950595
16.500000	0.950566
17.500000	0.950535
18.500000	0.950502
19.500000	0.950468
20.500000	0.950431
21.500000	0.950393
22.500000	0.950353
23.500000	0.950311
24.500000	0.950267
25.500000	0.950222
26.500000	0.950175
27.500000	0.950125
28.500000	0.950074
29.500000	0.950022
30.500000	0.949967
31.500000	0.949911
32.500000	0.949853
33.500000	0.949793
34.500000	0.949731
35.500000	0.949667
36.500000	0.949602
37.500000	0.949535
38.500000	0.949466
39.500000	0.949395
40.500000	0.949323
41.500000	0.949248
42.500000	0.949172
43.500000	0.949094
44.500000	0.949015
45.500000	0.948933
46.500000	0.948850
47.500000	0.948765
48.500000	0.948678
49.500000	0.948590
50.500000	0.948499
51.500000	0.948407
52.500000	0.948313
53.500000	0.948217
54.500000	0.948120
55.500000	0.948021
56.500000	0.947920
57.500000	0.947817
58.500000	0.947713
59.500000	0.947606
60.500000	0.947498
61.500000	0.947388
62.500000	0.947277
63.500000	0.947164
64.500000	0.947049
65.500000	0.946932
66.500000	0.946813
67.500000	0.946693
68.500000	0.946571
69.500000	0.946447
70.500000	0.946322
71.500000	0.946195
72.500000	0.946066
73.500000	0.945935
74.500000	0.945803
75.500000	0.945668
76.500000	0.945533
77.500000	0.945395
78.500000	0.945256
79.500000	0.945115
80.500000	0.944972
81.500000	0.944828
82.500000	0.944681
83.500000	0.944534
84.500000	0.944384
85.500000	0.944233
86.500000	0.944080
87.500000	0.943925
88.500000	0.943769
89.500000	0.943611
90.500000	0.943451
91.500000	0.943290
92.500000	0.943126
93.500000	0.942962
94.500000	0.942795
95.500000	0.942627
96.500000	0.942457
97.500000	0.942286
98.500000	0.942112
99.500000	0.941937
100.500000	0.941761
101.500000	0.941583
102.500000	0.941403
103.500000	0.941221
104.500000	0.941038
105.500000	0.940853
106.500000	0.940666
107.500000	0.940478
108.500000	0.940288
109.500000	0.940097
110.500000	0.939904
111.500000	0.939709
112.500000	0.939512
113.500000	0.939314
114.500000	0.939114
115.500000	0.938913
116.500000	0.938709
117.500000	0.938505
118.500000	0.938298
119.500000	0.938090
120.500000	0.937880
121.500000	0.937669
122.500000	0.937456
123.500000	0.937241
124.500000	0.937025
125.500000	0.936807
126.500000	0.936587
127.500000	0.936366
128.500000	0.936143
129.500000	0.935919
130.500000	0.935692
131.500000	0.935465
132.500000	0.935235
133.500000	0.935004
134.500000	0.934771
135.500000	0.934537
136.500000	0.934300
137.500000	0.934063
138.500000	0.933823
139.500000	0.933582
140.500000	0.933340
141.500000	0.933095
142.500000	0.932849
143.500000	0.932601
144.500000	0.932352
145.500000	0.932101
146.500000	0.931848
147.500000	0.931594
148.500000	0.931338
149.500000	0.931080
150.500000	0.930821
151.500000	0.930559
152.500000	0.930297
153.500000	0.930032
154.500000	0.929766
155.500000	0.929498
156.500000	0.929229
157.500000	0.928957
158.500000	0.928684
159.500000	0.928410
160.500000	0.928133
161.500000	0.927855
162.500000	0.927575
163.500000	0.927293
164.500000	0.927010
165.500000	0.926725
166.500000	0.926438
167.500000	0.926149
168.500000	0.925859
169.500000	0.925567
170.500000	0.925273
171.500000	0.924977
172.500000	0.924679
173.500000	0.924380
174.500000	0.924079
175.500000	0.923776
176.500000	0.923471
177.500000	0.923164
178.500000	0.922856
179.500000	0.922545
180.500000	0.922233
181.500000	0.921919
182.500000	0.921603
183.500000	0.921285
184.500000	0.920965
185.500000	0.920643
186.500000	0.920320
187.500000	0.919994
188.500000	0.919666
189.500000	0.919337
190.500000	0.919005
191.500000	0.918672
192.500000	0.918336
193.500000	0.917999
194.500000	0.917659
195.500000	0.917318
196.500000	0.916974
197.500000	0.916628
198.500000	0.916280
199.500000	0.915930
200.500000	0.915578
201.500000	0.915224
202.500000	0.914868
203.500000	0.914509
204.500000	0.914149
205.500000	0.913786
206.500000	0.913420
207.500000	0.913053
208.500000	0.912683
209.500000	0.912312
210.500000	0.911937
211.500000	0.911561
212.500000	0.911182
213.500000	0.910801
214.500000	0.910417
215.500000	0.910031
216.500000	0.909643
217.500000	0.909252
218.500000	0.908859
219.500000	0.908463
220.500000	0.908065
221.500000	0.907664
222.500000	0.907261
223.500000	0.906855
224.500000	0.906447
225.500000	0.906036
226.500000	0.905622
227.500000	0.905206
228.500000	0.904787
229.500000	0.904365
230.500000	0.903941
231.500000	0.903513
232.500000	0.903083
233.500000	0.902650
234.500000	0.902215
235.500000	0.901776
236.500000	0.901335
237.500000	0.900890
238.500000	0.900443
239.500000	0.899993
240.500000	0.899539
241.500000	0.899083
242.500000	0.898623
243.500000	0.898161
244.500000	0.897695
245.500000	0.897226
246.500000	0.896754
247.500000	0.896279
248.500000	0.895800
249.500000	0.895318
250.500000	0.894833
251.500000	0.894345
252.500000	0.893853
253.500000	0.893357
254.500000	0.892858
255.500000	0.892356
256.500000	0.891850
257.500000	0.891341
258.500000	0.890828
259.500000	0.890311
260.500000	0.889791
261.500000	0.889266
262.500000	0.888739
263.500000	0.888207
264.500000	0.887671
265.500000	0.887132
266.500000	0.886589
267.500000	0.886041
268.500000	0.885490
269.500000	0.884935
270.500000	0.884375
271.500000	0.883812
272.500000	0.883244
273.500000	0.882672
274.500000	0.882096
275.500000	0.881516
276.500000	0.880931
277.500000	0.880342
278.500000	0.879748
279.500000	0.879150
280.500000	0.878548
281.500000	0.877941
282.500000	0.877329
283.500000	0.876712
284.500000	0.876091
285.500000	0.875465
286.500000	0.874835
287.500000	0.874199
288.500000	0.873559
289.500000	0.872913
290.500000	0.872263
291.500000	0.871608
292.500000	0.870947
293.500000	0.870281
294.500000	0.869610
295.500000	0.868934
296.500000	0.868253
297.500000	0.867566
298.500000	0.866873
299.500000	0.866175
300.500000	0.865472
301.500000	0.864763
302.500000	0.864048
303.500000	0.863328
304.500000	0.862602
305.500000	0.861870
306.500000	0.861132
307.500000	0.860388
308.500000	0.859638
309.500000	0.858882
310.500000	0.858120
311.500000	0.857352
312.500000	0.856577
313.500000	0.855796
314.500000	0.855009
315.500000	0.854215
316.500000	0.853415
317.500000	0.852608
318.500000	0.851794
319.500000	0.850974
320.500000	0.850147
321.500000	0.849313
322.500000	0.848472
323.500000	0.847624
324.500000	0.846768
325.500000	0.845906
326.500000	0.845037
327.500000	0.844160
328.500000	0.843276
329.500000	0.842384
330.500000	0.841485
331.500000	0.840578
332.500000	0.839664
333.500000	0.838742
334.500000	0.837812
335.500000	0.836874
336.500000	0.835928
337.500000	0.834974
338.500000	0.834012
339.500000	0.833041
340.500000	0.832062
341.500000	0.831075
342.500000	0.830080
343.500000	0.829075
344.500000	0.828063
345.500000	0.827041
346.500000	0.826011
347.500000	0.824971
348.500000	0.823923
349.500000	0.822866
350.500000	0.821799
351.500000	0.820723
352.500000	0.819638
353.500000	0.818543
354.500000	0.817439
355.500000	0.816325
356.500000	0.815202
357.500000	0.814069
358.500000	0.812926
359.500000	0.811773
360.500000	0.810609
361.500000	0.809436
362.500000	0.808252
363.500000	0.807059
364.500000	0.805854
365.500000	0.804639
366.500000	0.803414
367.500000	0.802177
368.500000	0.800930
369.500000	0.799672
370.500000	0.798403
371.500000	0.797123
372.500000	0.795832
373.500000	0.794530
374.500000	0.793216
375.500000	0.791890
376.500000	0.790553
377.500000	0.789205
378.500000	0.787844
379.500000	0.786472
380.500000	0.785088
381.500000	0.783692
382.500000	0.782284
383.500000	0.780863
384.500000	0.779430
385.500000	0.777985
386.500000	0.776528
387.500000	0.775057
388.500000	0.773575
389.500000	0.772079
390.500000	0.770571
391.500000	0.769049
392.500000	0.767515
393.500000	0.765968
394.500000	0.764407
395.500000	0.762833
396.500000	0.761246
397.500000	0.759646
398.500000	0.758032
399.500000	0.756404
400.500000	0.754763
401.500000	0.753108
402.500000	0.751439
403.500000	0.749757
404.500000	0.748061
405.500000	0.746350
406.500000	0.744626
407.500000	0.742887
408.500000	0.741135
409.500000	0.739368
410.500000	0.737587
411.500000	0.735791
412.500000	0.733981
413.500000	0.732157
414.500000	0.730318
415.500000	0.728465
416.500000	0.726597
417.500000	0.724715
418.500000	0.722818
419.500000	0.720906
420.500000	0.718980
421.500000	0.717039
422.500000	0.715083
423.500000	0.713113
424.500000	0.711127
425.500000	0.709127
426.500000	0.707112
427.500000	0.705082
428.500000	0.703038
429.500000	0.700979
430.500000	0.698904
431.500000	0.696815
432.500000	0.694712
433.500000	0.692593
434.500000	0.690460
435.500000	0.688312
436.500000	0.686149
437.500000	0.683971
438.500000	0.681779
439.500000	0.679573
440.500000	0.677351
441.500000	0.675115
442.500000	0.672865
443.500000	0.670600
444.500000	0.668321
445.500000	0.666027
446.500000	0.663720
447.500000	0.661398
448.500000	0.659061
449.500000	0.656711
450.500000	0.654347
451.500000	0.651969
452.500000	0.649577
453.500000	0.647172
454.500000	0.644753
455.500000	0.642320
456.500000	0.639874
457.500000	0.637414
458.500000	0.634942
459.500000	0.632456
460.500000	0.629957
461.500000	0.627446
462.500000	0.624922
463.500000	0.622385
464.500000	0.619836
465.500000	0.617274
466.500000	0.614700
467.500000	0.612115
468.500000	0.609517
469.500000	0.606908
470.500000	0.604287
471.500000	0.601654
472.500000	0.599011
473.500000	0.596356
474.500000	0.593691
475.500000	0.591015
476.500000	0.588328
477.500000	0.585631
478.500000	0.582924
479.500000	0.580206
480.500000	0.577479
481.500000	0.574743
482.500000	0.571997
483.500000	0.569242
484.500000	0.566478
485.500000	0.563706
486.500000	0.560925
487.500000	0.558136
488.500000	0.555338
489.500000	0.552534
490.500000	0.549721
491.500000	0.546902
492.500000	0.544075
493.500000	0.541242
494.500000	0.538402
495.500000	0.535556
496.500000	0.532704
497.500000	0.529847
498.500000	0.526984
499.500000	0.524117
500.500000	0.521245
501.500000	0.518368
502.500000	0.515488
503.500000	0.512604
504.500000	0.509716
505.500000	0.506826
506.500000	0.503933
507.500000	0.501038
508.500000	0.498140
509.500000	0.495242
510.500000	0.492342
511.500000	0.489442
512.500000	0.486541
513.500000	0.483641
514.500000	0.480741
515.500000	0.477842
516.500000	0.474944
517.500000	0.472049
518.500000	0.469155
519.500000	0.466265
520.500000	0.463378
521.500000	0.460495
522.500000	0.457616
523.500000	0.454741
524.500000	0.451873
525.500000	0.449009
526.500000	0.446153
527.500000	0.443303
528.500000	0.440460
529.500000	0.437625
530.500000	0.434799
531.500000	0.431982
532.500000	0.429175
533.500000	0.426377
534.500000	0.423590
535.500000	0.420815
536.500000	0.418051
537.500000	0.415300
538.500000	0.412562
539.500000	0.409837
540.500000	0.407126
541.500000	0.404430
542.500000	0.401749
543.500000	0.399083
544.500000	0.396434
545.500000	0.393802
546.500000	0.391187
547.500000	0.388590
548.500000	0.386012
549.500000	0.383452
550.500000	0.380912
551.500000	0.378392
552.500000	0.375892
553.500000	0.373413
554.500000	0.370955
555.500000	0.368519
556.500000	0.366105
557.500000	0.363714
558.500000	0.361345
559.500000	0.359000
560.500000	0.356679
561.500000	0.354382
562.500000	0.352109
563.500000	0.349861
564.500000	0.347638
565.500000	0.345439
566.500000	0.343267
567.500000	0.341120
568.500000	0.338999
569.500000	0.336904
570.500000	0.334835
571.500000	0.332793
572.500000	0.330777
573.500000	0.328788
574.500000	0.326825
575.500000	0.324890
576.500000	0.322981
577.500000	0.321099
578.500000	0.319243
579.500000	0.317415
580.500000	0.315613
581.500000	0.313838
582.500000	0.312090
583.500000	0.310369
584.500000	0.308674
585.500000	0.307005
586.500000	0.305363
587.500000	0.303747
588.500000	0.302156
589.500000	0.300592
590.500000	0.299054
591.500000	0.297540
592.500000	0.296052
593.500000	0.294590
594.500000	0.293152
595.500000	0.291738
596.500000	0.290349
597.500000	0.288985
598.500000	0.287644
599.500000	0.286327
600.500000	0.285033
601.500000	0.283762
602.500000	0.282514
603.500000	0.281289
604.500000	0.280086
605.500000	0.278905
606.500000	0.277745
607.500000	0.276608
608.500000	0.275491
609.500000	0.274395
610.500000	0.273320
611.500000	0.272265
612.500000	0.271230
613.500000	0.270215
614.500000	0.269219
615.500000	0.268243
616.500000	0.267285
617.500000	0.266346
618.500000	0.265425
619.500000	0.264522
620.500000	0.263637
621.500000	0.262770
622.500000	0.261919
623.500000	0.261086
624.500000	0.260269
625.500000	0.259469
626.500000	0.258685
627.500000	0.257917
628.500000	0.257165
629.500000	0.256428
630.500000	0.255706
631.500000	0.254999
632.500000	0.254307
633.500000	0.253629
634.500000	0.252966
635.500000	0.252317
636.500000	0.251682
637.500000	0.251060
638.500000	0.250452
639.500000	0.249857
640.500000	0.249275
641.500000	0.248706
642.500000	0.248150
643.500000	0.247606
644.500000	0.247074
645.500000	0.246555
646.500000	0.246048
647.500000	0.245552
648.500000	0.245069
649.500000	0.244596
650.500000	0.244136
651.500000	0.243686
652.500000	0.243247
653.500000	0.242820
654.500000	0.242403
655.500000	0.241997
656.500000	0.241602
657.500000	0.241217
658.500000	0.240842
659.500000	0.240478
660.500000	0.240124
661.500000	0.239780
662.500000	0.239446
663.500000	0.239121
664.500000	0.238807
665.500000	0.238502
666.500000	0.238206
667.500000	0.237920
668.500000	0.237644
669.500000	0.237377
670.500000	0.237119
671.500000	0.236870
672.500000	0.236631
673.500000	0.236400
674.500000	0.236179
675.500000	0.235966
676.500000	0.235762
677.500000	0.235568
678.500000	0.235382
679.500000	0.235205
680.500000	0.235036
681.500000	0.234876
682.500000	0.234725
683.500000	0.234582
684.500000	0.234448
685.500000	0.234323
686.500000	0.234206
687.500000	0.234097
688.500000	0.233997
689.500000	0.233905
690.500000	0.233822
691.500000	0.233747
692.500000	0.233681
693.500000	0.233622
694.500000	0.233573
695.500000	0.233531
696.500000	0.233498
697.500000	0.233473
698.500000	0.233456
699.500000	0.233448
