# Profil de Te au temps 1.200000000000016e-11 
# simu : /Volumes/MERCURE/JOBS/tanh_50mic_Zeq2_5e19_B0/GNU/Te@y-c.set
# col 0 : abscisse (um)
# col 1 : Te (keV)
0.500000	0.997504
1.500000	0.997502
2.500000	0.997499
3.500000	0.997495
4.500000	0.997489
5.500000	0.997482
6.500000	0.997474
7.500000	0.997464
8.500000	0.997453
9.500000	0.997440
10.500000	0.997426
11.500000	0.997410
12.500000	0.997393
13.500000	0.997374
14.500000	0.997354
15.500000	0.997333
16.500000	0.997310
17.500000	0.997286
18.500000	0.997260
19.500000	0.997233
20.500000	0.997204
21.500000	0.997174
22.500000	0.997142
23.500000	0.997109
24.500000	0.997074
25.500000	0.997038
26.500000	0.997001
27.500000	0.996962
28.500000	0.996921
29.500000	0.996879
30.500000	0.996835
31.500000	0.996790
32.500000	0.996743
33.500000	0.996694
34.500000	0.996644
35.500000	0.996593
36.500000	0.996540
37.500000	0.996485
38.500000	0.996429
39.500000	0.996371
40.500000	0.996311
41.500000	0.996250
42.500000	0.996187
43.500000	0.996122
44.500000	0.996056
45.500000	0.995988
46.500000	0.995918
47.500000	0.995847
48.500000	0.995774
49.500000	0.995699
50.500000	0.995623
51.500000	0.995545
52.500000	0.995465
53.500000	0.995383
54.500000	0.995299
55.500000	0.995214
56.500000	0.995127
57.500000	0.995038
58.500000	0.994947
59.500000	0.994854
60.500000	0.994760
61.500000	0.994663
62.500000	0.994565
63.500000	0.994464
64.500000	0.994362
65.500000	0.994258
66.500000	0.994152
67.500000	0.994044
68.500000	0.993934
69.500000	0.993822
70.500000	0.993708
71.500000	0.993592
72.500000	0.993474
73.500000	0.993354
74.500000	0.993232
75.500000	0.993107
76.500000	0.992981
77.500000	0.992853
78.500000	0.992722
79.500000	0.992589
80.500000	0.992454
81.500000	0.992317
82.500000	0.992178
83.500000	0.992037
84.500000	0.991893
85.500000	0.991747
86.500000	0.991599
87.500000	0.991449
88.500000	0.991296
89.500000	0.991141
90.500000	0.990984
91.500000	0.990825
92.500000	0.990663
93.500000	0.990499
94.500000	0.990332
95.500000	0.990163
96.500000	0.989992
97.500000	0.989819
98.500000	0.989643
99.500000	0.989464
100.500000	0.989283
101.500000	0.989100
102.500000	0.988914
103.500000	0.988726
104.500000	0.988535
105.500000	0.988342
106.500000	0.988146
107.500000	0.987947
108.500000	0.987746
109.500000	0.987543
110.500000	0.987337
111.500000	0.987128
112.500000	0.986917
113.500000	0.986703
114.500000	0.986487
115.500000	0.986268
116.500000	0.986046
117.500000	0.985822
118.500000	0.985595
119.500000	0.985365
120.500000	0.985133
121.500000	0.984897
122.500000	0.984660
123.500000	0.984419
124.500000	0.984176
125.500000	0.983930
126.500000	0.983681
127.500000	0.983429
128.500000	0.983175
129.500000	0.982918
130.500000	0.982658
131.500000	0.982395
132.500000	0.982130
133.500000	0.981861
134.500000	0.981590
135.500000	0.981316
136.500000	0.981039
137.500000	0.980760
138.500000	0.980477
139.500000	0.980192
140.500000	0.979903
141.500000	0.979612
142.500000	0.979318
143.500000	0.979021
144.500000	0.978721
145.500000	0.978418
146.500000	0.978112
147.500000	0.977803
148.500000	0.977492
149.500000	0.977177
150.500000	0.976860
151.500000	0.976539
152.500000	0.976216
153.500000	0.975889
154.500000	0.975560
155.500000	0.975227
156.500000	0.974892
157.500000	0.974554
158.500000	0.974212
159.500000	0.973868
160.500000	0.973521
161.500000	0.973170
162.500000	0.972817
163.500000	0.972461
164.500000	0.972101
165.500000	0.971739
166.500000	0.971374
167.500000	0.971005
168.500000	0.970634
169.500000	0.970259
170.500000	0.969882
171.500000	0.969501
172.500000	0.969118
173.500000	0.968731
174.500000	0.968342
175.500000	0.967949
176.500000	0.967553
177.500000	0.967155
178.500000	0.966753
179.500000	0.966348
180.500000	0.965941
181.500000	0.965530
182.500000	0.965116
183.500000	0.964699
184.500000	0.964279
185.500000	0.963856
186.500000	0.963430
187.500000	0.963001
188.500000	0.962569
189.500000	0.962134
190.500000	0.961696
191.500000	0.961254
192.500000	0.960810
193.500000	0.960363
194.500000	0.959913
195.500000	0.959459
196.500000	0.959003
197.500000	0.958544
198.500000	0.958081
199.500000	0.957616
200.500000	0.957148
201.500000	0.956676
202.500000	0.956202
203.500000	0.955724
204.500000	0.955244
205.500000	0.954760
206.500000	0.954274
207.500000	0.953784
208.500000	0.953292
209.500000	0.952796
210.500000	0.952298
211.500000	0.951796
212.500000	0.951292
213.500000	0.950784
214.500000	0.950274
215.500000	0.949760
216.500000	0.949244
217.500000	0.948724
218.500000	0.948202
219.500000	0.947677
220.500000	0.947148
221.500000	0.946617
222.500000	0.946082
223.500000	0.945545
224.500000	0.945005
225.500000	0.944461
226.500000	0.943915
227.500000	0.943365
228.500000	0.942813
229.500000	0.942258
230.500000	0.941700
231.500000	0.941138
232.500000	0.940574
233.500000	0.940007
234.500000	0.939437
235.500000	0.938864
236.500000	0.938287
237.500000	0.937708
238.500000	0.937126
239.500000	0.936541
240.500000	0.935953
241.500000	0.935362
242.500000	0.934767
243.500000	0.934170
244.500000	0.933570
245.500000	0.932967
246.500000	0.932361
247.500000	0.931751
248.500000	0.931139
249.500000	0.930524
250.500000	0.929905
251.500000	0.929284
252.500000	0.928659
253.500000	0.928032
254.500000	0.927401
255.500000	0.926767
256.500000	0.926130
257.500000	0.925490
258.500000	0.924847
259.500000	0.924201
260.500000	0.923552
261.500000	0.922899
262.500000	0.922243
263.500000	0.921584
264.500000	0.920922
265.500000	0.920257
266.500000	0.919588
267.500000	0.918916
268.500000	0.918241
269.500000	0.917563
270.500000	0.916881
271.500000	0.916196
272.500000	0.915508
273.500000	0.914816
274.500000	0.914120
275.500000	0.913422
276.500000	0.912719
277.500000	0.912014
278.500000	0.911305
279.500000	0.910592
280.500000	0.909876
281.500000	0.909156
282.500000	0.908432
283.500000	0.907705
284.500000	0.906974
285.500000	0.906239
286.500000	0.905500
287.500000	0.904758
288.500000	0.904012
289.500000	0.903262
290.500000	0.902507
291.500000	0.901749
292.500000	0.900987
293.500000	0.900221
294.500000	0.899450
295.500000	0.898676
296.500000	0.897897
297.500000	0.897113
298.500000	0.896326
299.500000	0.895534
300.500000	0.894737
301.500000	0.893936
302.500000	0.893130
303.500000	0.892319
304.500000	0.891504
305.500000	0.890684
306.500000	0.889859
307.500000	0.889029
308.500000	0.888194
309.500000	0.887354
310.500000	0.886508
311.500000	0.885658
312.500000	0.884802
313.500000	0.883940
314.500000	0.883073
315.500000	0.882200
316.500000	0.881322
317.500000	0.880437
318.500000	0.879547
319.500000	0.878650
320.500000	0.877748
321.500000	0.876839
322.500000	0.875924
323.500000	0.875002
324.500000	0.874074
325.500000	0.873139
326.500000	0.872197
327.500000	0.871248
328.500000	0.870292
329.500000	0.869329
330.500000	0.868359
331.500000	0.867381
332.500000	0.866395
333.500000	0.865402
334.500000	0.864401
335.500000	0.863392
336.500000	0.862374
337.500000	0.861348
338.500000	0.860314
339.500000	0.859271
340.500000	0.858220
341.500000	0.857159
342.500000	0.856089
343.500000	0.855011
344.500000	0.853922
345.500000	0.852824
346.500000	0.851716
347.500000	0.850598
348.500000	0.849471
349.500000	0.848332
350.500000	0.847184
351.500000	0.846024
352.500000	0.844854
353.500000	0.843672
354.500000	0.842480
355.500000	0.841276
356.500000	0.840060
357.500000	0.838832
358.500000	0.837592
359.500000	0.836340
360.500000	0.835076
361.500000	0.833799
362.500000	0.832509
363.500000	0.831206
364.500000	0.829889
365.500000	0.828559
366.500000	0.827215
367.500000	0.825858
368.500000	0.824486
369.500000	0.823099
370.500000	0.821698
371.500000	0.820283
372.500000	0.818852
373.500000	0.817405
374.500000	0.815944
375.500000	0.814466
376.500000	0.812972
377.500000	0.811463
378.500000	0.809936
379.500000	0.808393
380.500000	0.806833
381.500000	0.805256
382.500000	0.803661
383.500000	0.802049
384.500000	0.800419
385.500000	0.798771
386.500000	0.797104
387.500000	0.795419
388.500000	0.793715
389.500000	0.791992
390.500000	0.790250
391.500000	0.788488
392.500000	0.786706
393.500000	0.784905
394.500000	0.783083
395.500000	0.781241
396.500000	0.779378
397.500000	0.777494
398.500000	0.775590
399.500000	0.773664
400.500000	0.771716
401.500000	0.769747
402.500000	0.767756
403.500000	0.765742
404.500000	0.763707
405.500000	0.761649
406.500000	0.759568
407.500000	0.757464
408.500000	0.755338
409.500000	0.753188
410.500000	0.751014
411.500000	0.748817
412.500000	0.746596
413.500000	0.744352
414.500000	0.742083
415.500000	0.739790
416.500000	0.737473
417.500000	0.735131
418.500000	0.732765
419.500000	0.730374
420.500000	0.727958
421.500000	0.725517
422.500000	0.723051
423.500000	0.720560
424.500000	0.718044
425.500000	0.715503
426.500000	0.712936
427.500000	0.710344
428.500000	0.707727
429.500000	0.705084
430.500000	0.702416
431.500000	0.699723
432.500000	0.697004
433.500000	0.694259
434.500000	0.691490
435.500000	0.688694
436.500000	0.685874
437.500000	0.683028
438.500000	0.680157
439.500000	0.677261
440.500000	0.674340
441.500000	0.671394
442.500000	0.668423
443.500000	0.665428
444.500000	0.662408
445.500000	0.659364
446.500000	0.656295
447.500000	0.653203
448.500000	0.650086
449.500000	0.646946
450.500000	0.643783
451.500000	0.640596
452.500000	0.637386
453.500000	0.634154
454.500000	0.630899
455.500000	0.627622
456.500000	0.624324
457.500000	0.621003
458.500000	0.617662
459.500000	0.614299
460.500000	0.610916
461.500000	0.607512
462.500000	0.604089
463.500000	0.600646
464.500000	0.597184
465.500000	0.593703
466.500000	0.590204
467.500000	0.586687
468.500000	0.583152
469.500000	0.579601
470.500000	0.576032
471.500000	0.572448
472.500000	0.568847
473.500000	0.565232
474.500000	0.561602
475.500000	0.557957
476.500000	0.554299
477.500000	0.550627
478.500000	0.546943
479.500000	0.543247
480.500000	0.539539
481.500000	0.535820
482.500000	0.532090
483.500000	0.528351
484.500000	0.524603
485.500000	0.520845
486.500000	0.517080
487.500000	0.513308
488.500000	0.509528
489.500000	0.505743
490.500000	0.501952
491.500000	0.498157
492.500000	0.494358
493.500000	0.490555
494.500000	0.486750
495.500000	0.482943
496.500000	0.479135
497.500000	0.475327
498.500000	0.471520
499.500000	0.467714
500.500000	0.463911
501.500000	0.460110
502.500000	0.456314
503.500000	0.452522
504.500000	0.448737
505.500000	0.444958
506.500000	0.441187
507.500000	0.437424
508.500000	0.433671
509.500000	0.429929
510.500000	0.426198
511.500000	0.422479
512.500000	0.418775
513.500000	0.415085
514.500000	0.411410
515.500000	0.407752
516.500000	0.404112
517.500000	0.400491
518.500000	0.396890
519.500000	0.393309
520.500000	0.389751
521.500000	0.386215
522.500000	0.382704
523.500000	0.379217
524.500000	0.375756
525.500000	0.372323
526.500000	0.368918
527.500000	0.365541
528.500000	0.362195
529.500000	0.358879
530.500000	0.355595
531.500000	0.352344
532.500000	0.349126
533.500000	0.345942
534.500000	0.342794
535.500000	0.339681
536.500000	0.336604
537.500000	0.333564
538.500000	0.330562
539.500000	0.327599
540.500000	0.324674
541.500000	0.321788
542.500000	0.318941
543.500000	0.316135
544.500000	0.313368
545.500000	0.310643
546.500000	0.307957
547.500000	0.305313
548.500000	0.302710
549.500000	0.300148
550.500000	0.297627
551.500000	0.295147
552.500000	0.292708
553.500000	0.290310
554.500000	0.287953
555.500000	0.285637
556.500000	0.283361
557.500000	0.281125
558.500000	0.278928
559.500000	0.276772
560.500000	0.274654
561.500000	0.272576
562.500000	0.270535
563.500000	0.268533
564.500000	0.266568
565.500000	0.264640
566.500000	0.262749
567.500000	0.260893
568.500000	0.259073
569.500000	0.257288
570.500000	0.255537
571.500000	0.253820
572.500000	0.252136
573.500000	0.250484
574.500000	0.248865
575.500000	0.247277
576.500000	0.245720
577.500000	0.244193
578.500000	0.242696
579.500000	0.241228
580.500000	0.239788
581.500000	0.238376
582.500000	0.236991
583.500000	0.235633
584.500000	0.234301
585.500000	0.232995
586.500000	0.231713
587.500000	0.230456
588.500000	0.229222
589.500000	0.228012
590.500000	0.226825
591.500000	0.225659
592.500000	0.224516
593.500000	0.223393
594.500000	0.222292
595.500000	0.221210
596.500000	0.220148
597.500000	0.219105
598.500000	0.218081
599.500000	0.217075
600.500000	0.216087
601.500000	0.215116
602.500000	0.214162
603.500000	0.213225
604.500000	0.212304
605.500000	0.211399
606.500000	0.210509
607.500000	0.209634
608.500000	0.208773
609.500000	0.207927
610.500000	0.207094
611.500000	0.206276
612.500000	0.205470
613.500000	0.204677
614.500000	0.203897
615.500000	0.203129
616.500000	0.202373
617.500000	0.201629
618.500000	0.200897
619.500000	0.200175
620.500000	0.199465
621.500000	0.198765
622.500000	0.198075
623.500000	0.197396
624.500000	0.196727
625.500000	0.196067
626.500000	0.195418
627.500000	0.194777
628.500000	0.194146
629.500000	0.193524
630.500000	0.192911
631.500000	0.192307
632.500000	0.191711
633.500000	0.191124
634.500000	0.190545
635.500000	0.189974
636.500000	0.189412
637.500000	0.188858
638.500000	0.188311
639.500000	0.187773
640.500000	0.187242
641.500000	0.186719
642.500000	0.186204
643.500000	0.185696
644.500000	0.185196
645.500000	0.184704
646.500000	0.184219
647.500000	0.183742
648.500000	0.183272
649.500000	0.182810
650.500000	0.182355
651.500000	0.181908
652.500000	0.181469
653.500000	0.181037
654.500000	0.180613
655.500000	0.180196
656.500000	0.179787
657.500000	0.179386
658.500000	0.178993
659.500000	0.178607
660.500000	0.178230
661.500000	0.177860
662.500000	0.177499
663.500000	0.177146
664.500000	0.176801
665.500000	0.176464
666.500000	0.176135
667.500000	0.175815
668.500000	0.175504
669.500000	0.175201
670.500000	0.174907
671.500000	0.174621
672.500000	0.174345
673.500000	0.174077
674.500000	0.173819
675.500000	0.173569
676.500000	0.173329
677.500000	0.173098
678.500000	0.172877
679.500000	0.172665
680.500000	0.172462
681.500000	0.172269
682.500000	0.172086
683.500000	0.171913
684.500000	0.171749
685.500000	0.171595
686.500000	0.171451
687.500000	0.171318
688.500000	0.171194
689.500000	0.171080
690.500000	0.170977
691.500000	0.170884
692.500000	0.170801
693.500000	0.170728
694.500000	0.170666
695.500000	0.170614
696.500000	0.170572
697.500000	0.170541
698.500000	0.170520
699.500000	0.170510
