# Profil de Te au temps 1.209999999999997e-12 
# simu : /Volumes/MERCURE/JOBS/tanh_50mic_Zeq2_5e19_B0/GNU/Te@y-c.set
# col 0 : abscisse (um)
# col 1 : Te (keV)
0.500000	1.000000
1.500000	1.000000
2.500000	1.000000
3.500000	1.000000
4.500000	1.000000
5.500000	1.000000
6.500000	1.000000
7.500000	1.000000
8.500000	1.000000
9.500000	1.000000
10.500000	1.000000
11.500000	1.000000
12.500000	1.000000
13.500000	1.000000
14.500000	1.000000
15.500000	1.000000
16.500000	1.000000
17.500000	1.000000
18.500000	1.000000
19.500000	1.000000
20.500000	1.000000
21.500000	1.000000
22.500000	1.000000
23.500000	1.000000
24.500000	1.000000
25.500000	1.000000
26.500000	1.000000
27.500000	1.000000
28.500000	1.000000
29.500000	1.000000
30.500000	1.000000
31.500000	1.000000
32.500000	1.000000
33.500000	1.000000
34.500000	1.000000
35.500000	1.000000
36.500000	1.000000
37.500000	1.000000
38.500000	1.000000
39.500000	1.000000
40.500000	1.000000
41.500000	1.000000
42.500000	1.000000
43.500000	1.000000
44.500000	1.000000
45.500000	1.000000
46.500000	1.000000
47.500000	1.000000
48.500000	1.000000
49.500000	1.000000
50.500000	1.000000
51.500000	1.000000
52.500000	1.000000
53.500000	1.000000
54.500000	1.000000
55.500000	1.000000
56.500000	1.000000
57.500000	1.000000
58.500000	1.000000
59.500000	1.000000
60.500000	1.000000
61.500000	1.000000
62.500000	1.000000
63.500000	1.000000
64.500000	1.000000
65.500000	1.000000
66.500000	1.000000
67.500000	1.000000
68.500000	1.000000
69.500000	1.000000
70.500000	1.000000
71.500000	1.000000
72.500000	1.000000
73.500000	1.000000
74.500000	1.000000
75.500000	1.000000
76.500000	1.000000
77.500000	1.000000
78.500000	1.000000
79.500000	1.000000
80.500000	1.000000
81.500000	1.000000
82.500000	1.000000
83.500000	1.000000
84.500000	0.999999
85.500000	0.999999
86.500000	0.999999
87.500000	0.999999
88.500000	0.999999
89.500000	0.999999
90.500000	0.999999
91.500000	0.999999
92.500000	0.999999
93.500000	0.999999
94.500000	0.999999
95.500000	0.999999
96.500000	0.999999
97.500000	0.999999
98.500000	0.999999
99.500000	0.999999
100.500000	0.999999
101.500000	0.999999
102.500000	0.999999
103.500000	0.999999
104.500000	0.999999
105.500000	0.999999
106.500000	0.999999
107.500000	0.999999
108.500000	0.999999
109.500000	0.999999
110.500000	0.999999
111.500000	0.999999
112.500000	0.999998
113.500000	0.999998
114.500000	0.999998
115.500000	0.999998
116.500000	0.999998
117.500000	0.999998
118.500000	0.999998
119.500000	0.999998
120.500000	0.999998
121.500000	0.999998
122.500000	0.999998
123.500000	0.999998
124.500000	0.999997
125.500000	0.999997
126.500000	0.999997
127.500000	0.999997
128.500000	0.999997
129.500000	0.999997
130.500000	0.999997
131.500000	0.999997
132.500000	0.999997
133.500000	0.999996
134.500000	0.999996
135.500000	0.999996
136.500000	0.999996
137.500000	0.999996
138.500000	0.999996
139.500000	0.999995
140.500000	0.999995
141.500000	0.999995
142.500000	0.999995
143.500000	0.999995
144.500000	0.999994
145.500000	0.999994
146.500000	0.999994
147.500000	0.999994
148.500000	0.999993
149.500000	0.999993
150.500000	0.999993
151.500000	0.999993
152.500000	0.999992
153.500000	0.999992
154.500000	0.999992
155.500000	0.999991
156.500000	0.999991
157.500000	0.999991
158.500000	0.999990
159.500000	0.999990
160.500000	0.999989
161.500000	0.999989
162.500000	0.999989
163.500000	0.999988
164.500000	0.999988
165.500000	0.999987
166.500000	0.999987
167.500000	0.999986
168.500000	0.999985
169.500000	0.999985
170.500000	0.999984
171.500000	0.999984
172.500000	0.999983
173.500000	0.999982
174.500000	0.999981
175.500000	0.999981
176.500000	0.999980
177.500000	0.999979
178.500000	0.999978
179.500000	0.999977
180.500000	0.999976
181.500000	0.999975
182.500000	0.999974
183.500000	0.999973
184.500000	0.999972
185.500000	0.999971
186.500000	0.999970
187.500000	0.999969
188.500000	0.999967
189.500000	0.999966
190.500000	0.999965
191.500000	0.999963
192.500000	0.999962
193.500000	0.999960
194.500000	0.999959
195.500000	0.999957
196.500000	0.999955
197.500000	0.999953
198.500000	0.999951
199.500000	0.999949
200.500000	0.999947
201.500000	0.999945
202.500000	0.999943
203.500000	0.999941
204.500000	0.999938
205.500000	0.999936
206.500000	0.999933
207.500000	0.999930
208.500000	0.999928
209.500000	0.999925
210.500000	0.999922
211.500000	0.999918
212.500000	0.999915
213.500000	0.999912
214.500000	0.999908
215.500000	0.999904
216.500000	0.999900
217.500000	0.999896
218.500000	0.999892
219.500000	0.999888
220.500000	0.999883
221.500000	0.999878
222.500000	0.999873
223.500000	0.999868
224.500000	0.999863
225.500000	0.999857
226.500000	0.999851
227.500000	0.999845
228.500000	0.999839
229.500000	0.999832
230.500000	0.999826
231.500000	0.999818
232.500000	0.999811
233.500000	0.999803
234.500000	0.999795
235.500000	0.999787
236.500000	0.999778
237.500000	0.999769
238.500000	0.999760
239.500000	0.999750
240.500000	0.999740
241.500000	0.999729
242.500000	0.999718
243.500000	0.999707
244.500000	0.999695
245.500000	0.999682
246.500000	0.999669
247.500000	0.999656
248.500000	0.999642
249.500000	0.999627
250.500000	0.999612
251.500000	0.999596
252.500000	0.999580
253.500000	0.999563
254.500000	0.999545
255.500000	0.999526
256.500000	0.999507
257.500000	0.999487
258.500000	0.999466
259.500000	0.999444
260.500000	0.999421
261.500000	0.999398
262.500000	0.999373
263.500000	0.999348
264.500000	0.999321
265.500000	0.999294
266.500000	0.999265
267.500000	0.999235
268.500000	0.999204
269.500000	0.999171
270.500000	0.999137
271.500000	0.999102
272.500000	0.999066
273.500000	0.999028
274.500000	0.998988
275.500000	0.998947
276.500000	0.998904
277.500000	0.998860
278.500000	0.998813
279.500000	0.998765
280.500000	0.998715
281.500000	0.998663
282.500000	0.998608
283.500000	0.998552
284.500000	0.998493
285.500000	0.998431
286.500000	0.998368
287.500000	0.998301
288.500000	0.998232
289.500000	0.998161
290.500000	0.998086
291.500000	0.998008
292.500000	0.997927
293.500000	0.997843
294.500000	0.997756
295.500000	0.997665
296.500000	0.997570
297.500000	0.997472
298.500000	0.997369
299.500000	0.997263
300.500000	0.997152
301.500000	0.997037
302.500000	0.996917
303.500000	0.996792
304.500000	0.996662
305.500000	0.996527
306.500000	0.996387
307.500000	0.996241
308.500000	0.996089
309.500000	0.995931
310.500000	0.995767
311.500000	0.995597
312.500000	0.995419
313.500000	0.995234
314.500000	0.995043
315.500000	0.994843
316.500000	0.994636
317.500000	0.994420
318.500000	0.994196
319.500000	0.993963
320.500000	0.993720
321.500000	0.993469
322.500000	0.993207
323.500000	0.992935
324.500000	0.992652
325.500000	0.992358
326.500000	0.992053
327.500000	0.991736
328.500000	0.991406
329.500000	0.991064
330.500000	0.990708
331.500000	0.990339
332.500000	0.989955
333.500000	0.989556
334.500000	0.989142
335.500000	0.988712
336.500000	0.988265
337.500000	0.987802
338.500000	0.987320
339.500000	0.986820
340.500000	0.986302
341.500000	0.985763
342.500000	0.985204
343.500000	0.984624
344.500000	0.984022
345.500000	0.983398
346.500000	0.982750
347.500000	0.982078
348.500000	0.981381
349.500000	0.980659
350.500000	0.979909
351.500000	0.979132
352.500000	0.978327
353.500000	0.977492
354.500000	0.976627
355.500000	0.975731
356.500000	0.974802
357.500000	0.973840
358.500000	0.972843
359.500000	0.971811
360.500000	0.970743
361.500000	0.969636
362.500000	0.968492
363.500000	0.967307
364.500000	0.966081
365.500000	0.964812
366.500000	0.963501
367.500000	0.962144
368.500000	0.960742
369.500000	0.959292
370.500000	0.957794
371.500000	0.956245
372.500000	0.954646
373.500000	0.952994
374.500000	0.951289
375.500000	0.949528
376.500000	0.947711
377.500000	0.945835
378.500000	0.943901
379.500000	0.941905
380.500000	0.939848
381.500000	0.937727
382.500000	0.935541
383.500000	0.933289
384.500000	0.930969
385.500000	0.928580
386.500000	0.926121
387.500000	0.923590
388.500000	0.920985
389.500000	0.918306
390.500000	0.915551
391.500000	0.912719
392.500000	0.909808
393.500000	0.906817
394.500000	0.903745
395.500000	0.900591
396.500000	0.897352
397.500000	0.894030
398.500000	0.890621
399.500000	0.887125
400.500000	0.883541
401.500000	0.879867
402.500000	0.876104
403.500000	0.872249
404.500000	0.868302
405.500000	0.864263
406.500000	0.860129
407.500000	0.855901
408.500000	0.851578
409.500000	0.847159
410.500000	0.842644
411.500000	0.838032
412.500000	0.833323
413.500000	0.828517
414.500000	0.823612
415.500000	0.818609
416.500000	0.813509
417.500000	0.808310
418.500000	0.803013
419.500000	0.797618
420.500000	0.792125
421.500000	0.786535
422.500000	0.780848
423.500000	0.775064
424.500000	0.769185
425.500000	0.763211
426.500000	0.757142
427.500000	0.750980
428.500000	0.744726
429.500000	0.738381
430.500000	0.731947
431.500000	0.725424
432.500000	0.718814
433.500000	0.712120
434.500000	0.705342
435.500000	0.698483
436.500000	0.691545
437.500000	0.684530
438.500000	0.677440
439.500000	0.670278
440.500000	0.663047
441.500000	0.655749
442.500000	0.648387
443.500000	0.640964
444.500000	0.633484
445.500000	0.625950
446.500000	0.618365
447.500000	0.610733
448.500000	0.603058
449.500000	0.595343
450.500000	0.587594
451.500000	0.579814
452.500000	0.572007
453.500000	0.564178
454.500000	0.556331
455.500000	0.548472
456.500000	0.540606
457.500000	0.532736
458.500000	0.524868
459.500000	0.517008
460.500000	0.509161
461.500000	0.501331
462.500000	0.493525
463.500000	0.485748
464.500000	0.478004
465.500000	0.470300
466.500000	0.462642
467.500000	0.455033
468.500000	0.447480
469.500000	0.439989
470.500000	0.432564
471.500000	0.425210
472.500000	0.417933
473.500000	0.410737
474.500000	0.403627
475.500000	0.396608
476.500000	0.389685
477.500000	0.382860
478.500000	0.376139
479.500000	0.369525
480.500000	0.363021
481.500000	0.356631
482.500000	0.350357
483.500000	0.344203
484.500000	0.338171
485.500000	0.332262
486.500000	0.326479
487.500000	0.320823
488.500000	0.315296
489.500000	0.309897
490.500000	0.304629
491.500000	0.299490
492.500000	0.294482
493.500000	0.289604
494.500000	0.284856
495.500000	0.280237
496.500000	0.275745
497.500000	0.271381
498.500000	0.267143
499.500000	0.263029
500.500000	0.259037
501.500000	0.255166
502.500000	0.251414
503.500000	0.247779
504.500000	0.244258
505.500000	0.240850
506.500000	0.237552
507.500000	0.234361
508.500000	0.231276
509.500000	0.228293
510.500000	0.225411
511.500000	0.222626
512.500000	0.219936
513.500000	0.217339
514.500000	0.214832
515.500000	0.212412
516.500000	0.210077
517.500000	0.207824
518.500000	0.205652
519.500000	0.203556
520.500000	0.201536
521.500000	0.199589
522.500000	0.197712
523.500000	0.195903
524.500000	0.194160
525.500000	0.192481
526.500000	0.190863
527.500000	0.189305
528.500000	0.187805
529.500000	0.186360
530.500000	0.184969
531.500000	0.183629
532.500000	0.182340
533.500000	0.181099
534.500000	0.179904
535.500000	0.178754
536.500000	0.177648
537.500000	0.176583
538.500000	0.175558
539.500000	0.174573
540.500000	0.173624
541.500000	0.172712
542.500000	0.171834
543.500000	0.170990
544.500000	0.170177
545.500000	0.169396
546.500000	0.168645
547.500000	0.167922
548.500000	0.167228
549.500000	0.166559
550.500000	0.165917
551.500000	0.165299
552.500000	0.164704
553.500000	0.164133
554.500000	0.163584
555.500000	0.163056
556.500000	0.162548
557.500000	0.162059
558.500000	0.161590
559.500000	0.161139
560.500000	0.160705
561.500000	0.160288
562.500000	0.159887
563.500000	0.159502
564.500000	0.159131
565.500000	0.158775
566.500000	0.158433
567.500000	0.158104
568.500000	0.157788
569.500000	0.157484
570.500000	0.157192
571.500000	0.156911
572.500000	0.156641
573.500000	0.156382
574.500000	0.156133
575.500000	0.155893
576.500000	0.155663
577.500000	0.155441
578.500000	0.155229
579.500000	0.155024
580.500000	0.154828
581.500000	0.154639
582.500000	0.154458
583.500000	0.154283
584.500000	0.154116
585.500000	0.153955
586.500000	0.153800
587.500000	0.153652
588.500000	0.153509
589.500000	0.153371
590.500000	0.153239
591.500000	0.153113
592.500000	0.152991
593.500000	0.152874
594.500000	0.152761
595.500000	0.152653
596.500000	0.152549
597.500000	0.152450
598.500000	0.152354
599.500000	0.152261
600.500000	0.152173
601.500000	0.152088
602.500000	0.152006
603.500000	0.151927
604.500000	0.151852
605.500000	0.151779
606.500000	0.151710
607.500000	0.151643
608.500000	0.151578
609.500000	0.151517
610.500000	0.151457
611.500000	0.151400
612.500000	0.151345
613.500000	0.151293
614.500000	0.151242
615.500000	0.151193
616.500000	0.151146
617.500000	0.151102
618.500000	0.151058
619.500000	0.151017
620.500000	0.150977
621.500000	0.150939
622.500000	0.150902
623.500000	0.150867
624.500000	0.150833
625.500000	0.150800
626.500000	0.150769
627.500000	0.150739
628.500000	0.150710
629.500000	0.150682
630.500000	0.150655
631.500000	0.150629
632.500000	0.150605
633.500000	0.150581
634.500000	0.150558
635.500000	0.150536
636.500000	0.150515
637.500000	0.150495
638.500000	0.150476
639.500000	0.150457
640.500000	0.150439
641.500000	0.150422
642.500000	0.150405
643.500000	0.150390
644.500000	0.150374
645.500000	0.150360
646.500000	0.150345
647.500000	0.150332
648.500000	0.150319
649.500000	0.150306
650.500000	0.150294
651.500000	0.150283
652.500000	0.150272
653.500000	0.150261
654.500000	0.150251
655.500000	0.150241
656.500000	0.150232
657.500000	0.150223
658.500000	0.150214
659.500000	0.150205
660.500000	0.150197
661.500000	0.150190
662.500000	0.150182
663.500000	0.150175
664.500000	0.150168
665.500000	0.150162
666.500000	0.150155
667.500000	0.150149
668.500000	0.150143
669.500000	0.150138
670.500000	0.150132
671.500000	0.150127
672.500000	0.150122
673.500000	0.150117
674.500000	0.150113
675.500000	0.150108
676.500000	0.150104
677.500000	0.150100
678.500000	0.150096
679.500000	0.150092
680.500000	0.150089
681.500000	0.150085
682.500000	0.150082
683.500000	0.150079
684.500000	0.150076
685.500000	0.150073
686.500000	0.150070
687.500000	0.150067
688.500000	0.150065
689.500000	0.150062
690.500000	0.150060
691.500000	0.150058
692.500000	0.150056
693.500000	0.150055
694.500000	0.150053
695.500000	0.150052
696.500000	0.150050
697.500000	0.150049
698.500000	0.150049
699.500000	0.150048
