# Profil de Te au temps 0.000000000000000e+00 
# simu : /Volumes/MERCURE/JOBS/tanh_50mic_Zeq2_B0/GNU/Te@y-c.set
# col 0 : abscisse (um)
# col 1 : Te (keV)
0.500000	1.000000
1.500000	1.000000
2.500000	1.000000
3.500000	1.000000
4.500000	1.000000
5.500000	1.000000
6.500000	1.000000
7.500000	1.000000
8.500000	1.000000
9.500000	1.000000
10.500000	1.000000
11.500000	1.000000
12.500000	1.000000
13.500000	1.000000
14.500000	1.000000
15.500000	1.000000
16.500000	1.000000
17.500000	1.000000
18.500000	1.000000
19.500000	1.000000
20.500000	1.000000
21.500000	1.000000
22.500000	1.000000
23.500000	1.000000
24.500000	1.000000
25.500000	1.000000
26.500000	1.000000
27.500000	1.000000
28.500000	1.000000
29.500000	1.000000
30.500000	1.000000
31.500000	1.000000
32.500000	1.000000
33.500000	1.000000
34.500000	1.000000
35.500000	1.000000
36.500000	1.000000
37.500000	1.000000
38.500000	1.000000
39.500000	1.000000
40.500000	1.000000
41.500000	1.000000
42.500000	1.000000
43.500000	1.000000
44.500000	1.000000
45.500000	1.000000
46.500000	1.000000
47.500000	1.000000
48.500000	1.000000
49.500000	1.000000
50.500000	1.000000
51.500000	1.000000
52.500000	1.000000
53.500000	1.000000
54.500000	1.000000
55.500000	1.000000
56.500000	1.000000
57.500000	1.000000
58.500000	1.000000
59.500000	1.000000
60.500000	1.000000
61.500000	1.000000
62.500000	1.000000
63.500000	1.000000
64.500000	1.000000
65.500000	1.000000
66.500000	1.000000
67.500000	1.000000
68.500000	1.000000
69.500000	1.000000
70.500000	1.000000
71.500000	1.000000
72.500000	1.000000
73.500000	1.000000
74.500000	1.000000
75.500000	1.000000
76.500000	1.000000
77.500000	1.000000
78.500000	1.000000
79.500000	1.000000
80.500000	1.000000
81.500000	1.000000
82.500000	1.000000
83.500000	1.000000
84.500000	1.000000
85.500000	1.000000
86.500000	1.000000
87.500000	1.000000
88.500000	1.000000
89.500000	1.000000
90.500000	1.000000
91.500000	1.000000
92.500000	0.999999
93.500000	0.999999
94.500000	0.999999
95.500000	0.999999
96.500000	0.999999
97.500000	0.999999
98.500000	0.999999
99.500000	0.999999
100.500000	0.999999
101.500000	0.999999
102.500000	0.999999
103.500000	0.999999
104.500000	0.999999
105.500000	0.999999
106.500000	0.999999
107.500000	0.999999
108.500000	0.999999
109.500000	0.999999
110.500000	0.999999
111.500000	0.999999
112.500000	0.999999
113.500000	0.999999
114.500000	0.999999
115.500000	0.999999
116.500000	0.999999
117.500000	0.999999
118.500000	0.999999
119.500000	0.999998
120.500000	0.999998
121.500000	0.999998
122.500000	0.999998
123.500000	0.999998
124.500000	0.999998
125.500000	0.999998
126.500000	0.999998
127.500000	0.999998
128.500000	0.999998
129.500000	0.999998
130.500000	0.999998
131.500000	0.999998
132.500000	0.999997
133.500000	0.999997
134.500000	0.999997
135.500000	0.999997
136.500000	0.999997
137.500000	0.999997
138.500000	0.999997
139.500000	0.999997
140.500000	0.999996
141.500000	0.999996
142.500000	0.999996
143.500000	0.999996
144.500000	0.999996
145.500000	0.999996
146.500000	0.999996
147.500000	0.999995
148.500000	0.999995
149.500000	0.999995
150.500000	0.999995
151.500000	0.999995
152.500000	0.999994
153.500000	0.999994
154.500000	0.999994
155.500000	0.999994
156.500000	0.999993
157.500000	0.999993
158.500000	0.999993
159.500000	0.999993
160.500000	0.999992
161.500000	0.999992
162.500000	0.999992
163.500000	0.999991
164.500000	0.999991
165.500000	0.999990
166.500000	0.999990
167.500000	0.999990
168.500000	0.999989
169.500000	0.999989
170.500000	0.999988
171.500000	0.999988
172.500000	0.999987
173.500000	0.999987
174.500000	0.999986
175.500000	0.999986
176.500000	0.999985
177.500000	0.999985
178.500000	0.999984
179.500000	0.999983
180.500000	0.999983
181.500000	0.999982
182.500000	0.999981
183.500000	0.999980
184.500000	0.999980
185.500000	0.999979
186.500000	0.999978
187.500000	0.999977
188.500000	0.999976
189.500000	0.999975
190.500000	0.999974
191.500000	0.999973
192.500000	0.999972
193.500000	0.999971
194.500000	0.999970
195.500000	0.999968
196.500000	0.999967
197.500000	0.999966
198.500000	0.999964
199.500000	0.999963
200.500000	0.999961
201.500000	0.999960
202.500000	0.999958
203.500000	0.999956
204.500000	0.999955
205.500000	0.999953
206.500000	0.999951
207.500000	0.999949
208.500000	0.999947
209.500000	0.999945
210.500000	0.999942
211.500000	0.999940
212.500000	0.999938
213.500000	0.999935
214.500000	0.999932
215.500000	0.999930
216.500000	0.999927
217.500000	0.999924
218.500000	0.999921
219.500000	0.999917
220.500000	0.999914
221.500000	0.999911
222.500000	0.999907
223.500000	0.999903
224.500000	0.999899
225.500000	0.999895
226.500000	0.999891
227.500000	0.999886
228.500000	0.999882
229.500000	0.999877
230.500000	0.999872
231.500000	0.999867
232.500000	0.999861
233.500000	0.999856
234.500000	0.999850
235.500000	0.999844
236.500000	0.999837
237.500000	0.999831
238.500000	0.999824
239.500000	0.999816
240.500000	0.999809
241.500000	0.999801
242.500000	0.999793
243.500000	0.999785
244.500000	0.999776
245.500000	0.999767
246.500000	0.999757
247.500000	0.999747
248.500000	0.999737
249.500000	0.999726
250.500000	0.999715
251.500000	0.999703
252.500000	0.999691
253.500000	0.999679
254.500000	0.999666
255.500000	0.999652
256.500000	0.999638
257.500000	0.999623
258.500000	0.999608
259.500000	0.999591
260.500000	0.999575
261.500000	0.999557
262.500000	0.999539
263.500000	0.999521
264.500000	0.999501
265.500000	0.999481
266.500000	0.999460
267.500000	0.999438
268.500000	0.999415
269.500000	0.999391
270.500000	0.999366
271.500000	0.999340
272.500000	0.999313
273.500000	0.999285
274.500000	0.999256
275.500000	0.999226
276.500000	0.999194
277.500000	0.999161
278.500000	0.999127
279.500000	0.999091
280.500000	0.999054
281.500000	0.999016
282.500000	0.998976
283.500000	0.998934
284.500000	0.998890
285.500000	0.998845
286.500000	0.998798
287.500000	0.998749
288.500000	0.998698
289.500000	0.998645
290.500000	0.998590
291.500000	0.998533
292.500000	0.998473
293.500000	0.998411
294.500000	0.998346
295.500000	0.998278
296.500000	0.998208
297.500000	0.998135
298.500000	0.998059
299.500000	0.997980
300.500000	0.997898
301.500000	0.997813
302.500000	0.997724
303.500000	0.997631
304.500000	0.997535
305.500000	0.997434
306.500000	0.997330
307.500000	0.997221
308.500000	0.997108
309.500000	0.996991
310.500000	0.996868
311.500000	0.996741
312.500000	0.996609
313.500000	0.996471
314.500000	0.996327
315.500000	0.996178
316.500000	0.996023
317.500000	0.995861
318.500000	0.995693
319.500000	0.995519
320.500000	0.995337
321.500000	0.995147
322.500000	0.994951
323.500000	0.994746
324.500000	0.994533
325.500000	0.994311
326.500000	0.994081
327.500000	0.993841
328.500000	0.993591
329.500000	0.993332
330.500000	0.993062
331.500000	0.992781
332.500000	0.992489
333.500000	0.992185
334.500000	0.991869
335.500000	0.991541
336.500000	0.991199
337.500000	0.990844
338.500000	0.990475
339.500000	0.990090
340.500000	0.989691
341.500000	0.989275
342.500000	0.988843
343.500000	0.988394
344.500000	0.987927
345.500000	0.987442
346.500000	0.986937
347.500000	0.986413
348.500000	0.985868
349.500000	0.985301
350.500000	0.984712
351.500000	0.984099
352.500000	0.983463
353.500000	0.982802
354.500000	0.982115
355.500000	0.981401
356.500000	0.980659
357.500000	0.979889
358.500000	0.979088
359.500000	0.978256
360.500000	0.977393
361.500000	0.976495
362.500000	0.975564
363.500000	0.974596
364.500000	0.973592
365.500000	0.972549
366.500000	0.971466
367.500000	0.970342
368.500000	0.969176
369.500000	0.967965
370.500000	0.966709
371.500000	0.965406
372.500000	0.964054
373.500000	0.962651
374.500000	0.961197
375.500000	0.959688
376.500000	0.958124
377.500000	0.956502
378.500000	0.954822
379.500000	0.953080
380.500000	0.951274
381.500000	0.949404
382.500000	0.947467
383.500000	0.945461
384.500000	0.943383
385.500000	0.941232
386.500000	0.939006
387.500000	0.936702
388.500000	0.934319
389.500000	0.931853
390.500000	0.929303
391.500000	0.926667
392.500000	0.923942
393.500000	0.921126
394.500000	0.918217
395.500000	0.915212
396.500000	0.912110
397.500000	0.908907
398.500000	0.905602
399.500000	0.902193
400.500000	0.898678
401.500000	0.895053
402.500000	0.891318
403.500000	0.887469
404.500000	0.883506
405.500000	0.879427
406.500000	0.875228
407.500000	0.870910
408.500000	0.866469
409.500000	0.861905
410.500000	0.857216
411.500000	0.852400
412.500000	0.847458
413.500000	0.842387
414.500000	0.837186
415.500000	0.831856
416.500000	0.826396
417.500000	0.820804
418.500000	0.815082
419.500000	0.809229
420.500000	0.803246
421.500000	0.797133
422.500000	0.790890
423.500000	0.784520
424.500000	0.778023
425.500000	0.771400
426.500000	0.764654
427.500000	0.757786
428.500000	0.750799
429.500000	0.743695
430.500000	0.736478
431.500000	0.729151
432.500000	0.721716
433.500000	0.714178
434.500000	0.706540
435.500000	0.698808
436.500000	0.690985
437.500000	0.683076
438.500000	0.675086
439.500000	0.667020
440.500000	0.658885
441.500000	0.650684
442.500000	0.642426
443.500000	0.634114
444.500000	0.625757
445.500000	0.617359
446.500000	0.608928
447.500000	0.600469
448.500000	0.591991
449.500000	0.583499
450.500000	0.575000
451.500000	0.566501
452.500000	0.558009
453.500000	0.549531
454.500000	0.541072
455.500000	0.532641
456.500000	0.524243
457.500000	0.515886
458.500000	0.507574
459.500000	0.499316
460.500000	0.491115
461.500000	0.482980
462.500000	0.474914
463.500000	0.466924
464.500000	0.459015
465.500000	0.451192
466.500000	0.443460
467.500000	0.435822
468.500000	0.428284
469.500000	0.420849
470.500000	0.413522
471.500000	0.406305
472.500000	0.399201
473.500000	0.392214
474.500000	0.385346
475.500000	0.378600
476.500000	0.371977
477.500000	0.365480
478.500000	0.359110
479.500000	0.352867
480.500000	0.346754
481.500000	0.340771
482.500000	0.334918
483.500000	0.329196
484.500000	0.323604
485.500000	0.318144
486.500000	0.312814
487.500000	0.307613
488.500000	0.302542
489.500000	0.297600
490.500000	0.292784
491.500000	0.288095
492.500000	0.283531
493.500000	0.279090
494.500000	0.274772
495.500000	0.270573
496.500000	0.266494
497.500000	0.262531
498.500000	0.258682
499.500000	0.254947
500.500000	0.251322
501.500000	0.247807
502.500000	0.244398
503.500000	0.241093
504.500000	0.237890
505.500000	0.234788
506.500000	0.231783
507.500000	0.228874
508.500000	0.226058
509.500000	0.223333
510.500000	0.220697
511.500000	0.218147
512.500000	0.215681
513.500000	0.213298
514.500000	0.210994
515.500000	0.208768
516.500000	0.206617
517.500000	0.204539
518.500000	0.202533
519.500000	0.200596
520.500000	0.198726
521.500000	0.196920
522.500000	0.195178
523.500000	0.193498
524.500000	0.191876
525.500000	0.190312
526.500000	0.188803
527.500000	0.187349
528.500000	0.185946
529.500000	0.184594
530.500000	0.183291
531.500000	0.182035
532.500000	0.180824
533.500000	0.179658
534.500000	0.178534
535.500000	0.177451
536.500000	0.176408
537.500000	0.175404
538.500000	0.174436
539.500000	0.173505
540.500000	0.172607
541.500000	0.171744
542.500000	0.170912
543.500000	0.170111
544.500000	0.169341
545.500000	0.168599
546.500000	0.167885
547.500000	0.167198
548.500000	0.166537
549.500000	0.165901
550.500000	0.165288
551.500000	0.164699
552.500000	0.164132
553.500000	0.163587
554.500000	0.163063
555.500000	0.162558
556.500000	0.162073
557.500000	0.161606
558.500000	0.161157
559.500000	0.160725
560.500000	0.160309
561.500000	0.159910
562.500000	0.159525
563.500000	0.159156
564.500000	0.158801
565.500000	0.158459
566.500000	0.158131
567.500000	0.157815
568.500000	0.157511
569.500000	0.157219
570.500000	0.156938
571.500000	0.156668
572.500000	0.156409
573.500000	0.156159
574.500000	0.155919
575.500000	0.155689
576.500000	0.155467
577.500000	0.155254
578.500000	0.155049
579.500000	0.154853
580.500000	0.154663
581.500000	0.154481
582.500000	0.154307
583.500000	0.154139
584.500000	0.153977
585.500000	0.153822
586.500000	0.153673
587.500000	0.153529
588.500000	0.153391
589.500000	0.153259
590.500000	0.153132
591.500000	0.153009
592.500000	0.152892
593.500000	0.152779
594.500000	0.152670
595.500000	0.152566
596.500000	0.152465
597.500000	0.152369
598.500000	0.152276
599.500000	0.152187
600.500000	0.152102
601.500000	0.152020
602.500000	0.151941
603.500000	0.151865
604.500000	0.151792
605.500000	0.151722
606.500000	0.151654
607.500000	0.151589
608.500000	0.151527
609.500000	0.151467
610.500000	0.151410
611.500000	0.151355
612.500000	0.151302
613.500000	0.151251
614.500000	0.151202
615.500000	0.151155
616.500000	0.151110
617.500000	0.151066
618.500000	0.151024
619.500000	0.150984
620.500000	0.150946
621.500000	0.150909
622.500000	0.150873
623.500000	0.150839
624.500000	0.150806
625.500000	0.150774
626.500000	0.150744
627.500000	0.150715
628.500000	0.150687
629.500000	0.150660
630.500000	0.150634
631.500000	0.150609
632.500000	0.150585
633.500000	0.150562
634.500000	0.150540
635.500000	0.150519
636.500000	0.150499
637.500000	0.150479
638.500000	0.150461
639.500000	0.150443
640.500000	0.150425
641.500000	0.150409
642.500000	0.150392
643.500000	0.150377
644.500000	0.150362
645.500000	0.150348
646.500000	0.150334
647.500000	0.150321
648.500000	0.150309
649.500000	0.150297
650.500000	0.150285
651.500000	0.150274
652.500000	0.150263
653.500000	0.150253
654.500000	0.150243
655.500000	0.150233
656.500000	0.150224
657.500000	0.150215
658.500000	0.150207
659.500000	0.150199
660.500000	0.150191
661.500000	0.150184
662.500000	0.150176
663.500000	0.150169
664.500000	0.150163
665.500000	0.150156
666.500000	0.150150
667.500000	0.150144
668.500000	0.150139
669.500000	0.150133
670.500000	0.150128
671.500000	0.150123
672.500000	0.150118
673.500000	0.150114
674.500000	0.150109
675.500000	0.150105
676.500000	0.150101
677.500000	0.150097
678.500000	0.150093
679.500000	0.150089
680.500000	0.150086
681.500000	0.150083
682.500000	0.150079
683.500000	0.150076
684.500000	0.150073
685.500000	0.150070
686.500000	0.150068
687.500000	0.150065
688.500000	0.150062
689.500000	0.150060
690.500000	0.150058
691.500000	0.150055
692.500000	0.150053
693.500000	0.150051
694.500000	0.150049
695.500000	0.150047
696.500000	0.150045
697.500000	0.150044
698.500000	0.150042
699.500000	0.150040
