# Profil de Te au temps 1.209999999999997e-12 
# simu : /Volumes/MERCURE/JOBS/tanh_50mic_Zeq10_5e19_B0/GNU/Te@y-c.set
# col 0 : abscisse (um)
# col 1 : Te (keV)
0.500000	1.000000
1.500000	1.000000
2.500000	1.000000
3.500000	1.000000
4.500000	1.000000
5.500000	1.000000
6.500000	1.000000
7.500000	1.000000
8.500000	1.000000
9.500000	1.000000
10.500000	1.000000
11.500000	1.000000
12.500000	1.000000
13.500000	1.000000
14.500000	1.000000
15.500000	1.000000
16.500000	1.000000
17.500000	1.000000
18.500000	1.000000
19.500000	1.000000
20.500000	1.000000
21.500000	1.000000
22.500000	1.000000
23.500000	1.000000
24.500000	1.000000
25.500000	1.000000
26.500000	1.000000
27.500000	1.000000
28.500000	1.000000
29.500000	1.000000
30.500000	1.000000
31.500000	1.000000
32.500000	1.000000
33.500000	1.000000
34.500000	1.000000
35.500000	1.000000
36.500000	1.000000
37.500000	1.000000
38.500000	1.000000
39.500000	1.000000
40.500000	1.000000
41.500000	1.000000
42.500000	1.000000
43.500000	1.000000
44.500000	1.000000
45.500000	1.000000
46.500000	1.000000
47.500000	1.000000
48.500000	1.000000
49.500000	1.000000
50.500000	1.000000
51.500000	1.000000
52.500000	1.000000
53.500000	1.000000
54.500000	1.000000
55.500000	1.000000
56.500000	1.000000
57.500000	1.000000
58.500000	1.000000
59.500000	1.000000
60.500000	1.000000
61.500000	1.000000
62.500000	1.000000
63.500000	1.000000
64.500000	1.000000
65.500000	1.000000
66.500000	1.000000
67.500000	1.000000
68.500000	1.000000
69.500000	1.000000
70.500000	1.000000
71.500000	1.000000
72.500000	1.000000
73.500000	1.000000
74.500000	1.000000
75.500000	1.000000
76.500000	1.000000
77.500000	1.000000
78.500000	1.000000
79.500000	1.000000
80.500000	1.000000
81.500000	1.000000
82.500000	1.000000
83.500000	1.000000
84.500000	1.000000
85.500000	0.999999
86.500000	0.999999
87.500000	0.999999
88.500000	0.999999
89.500000	0.999999
90.500000	0.999999
91.500000	0.999999
92.500000	0.999999
93.500000	0.999999
94.500000	0.999999
95.500000	0.999999
96.500000	0.999999
97.500000	0.999999
98.500000	0.999999
99.500000	0.999999
100.500000	0.999999
101.500000	0.999999
102.500000	0.999999
103.500000	0.999999
104.500000	0.999999
105.500000	0.999999
106.500000	0.999999
107.500000	0.999999
108.500000	0.999999
109.500000	0.999999
110.500000	0.999999
111.500000	0.999999
112.500000	0.999998
113.500000	0.999998
114.500000	0.999998
115.500000	0.999998
116.500000	0.999998
117.500000	0.999998
118.500000	0.999998
119.500000	0.999998
120.500000	0.999998
121.500000	0.999998
122.500000	0.999998
123.500000	0.999998
124.500000	0.999998
125.500000	0.999997
126.500000	0.999997
127.500000	0.999997
128.500000	0.999997
129.500000	0.999997
130.500000	0.999997
131.500000	0.999997
132.500000	0.999997
133.500000	0.999996
134.500000	0.999996
135.500000	0.999996
136.500000	0.999996
137.500000	0.999996
138.500000	0.999996
139.500000	0.999995
140.500000	0.999995
141.500000	0.999995
142.500000	0.999995
143.500000	0.999995
144.500000	0.999994
145.500000	0.999994
146.500000	0.999994
147.500000	0.999994
148.500000	0.999994
149.500000	0.999993
150.500000	0.999993
151.500000	0.999993
152.500000	0.999992
153.500000	0.999992
154.500000	0.999992
155.500000	0.999991
156.500000	0.999991
157.500000	0.999991
158.500000	0.999990
159.500000	0.999990
160.500000	0.999990
161.500000	0.999989
162.500000	0.999989
163.500000	0.999988
164.500000	0.999988
165.500000	0.999987
166.500000	0.999987
167.500000	0.999986
168.500000	0.999986
169.500000	0.999985
170.500000	0.999984
171.500000	0.999984
172.500000	0.999983
173.500000	0.999982
174.500000	0.999982
175.500000	0.999981
176.500000	0.999980
177.500000	0.999979
178.500000	0.999979
179.500000	0.999978
180.500000	0.999977
181.500000	0.999976
182.500000	0.999975
183.500000	0.999974
184.500000	0.999973
185.500000	0.999972
186.500000	0.999970
187.500000	0.999969
188.500000	0.999968
189.500000	0.999967
190.500000	0.999965
191.500000	0.999964
192.500000	0.999962
193.500000	0.999961
194.500000	0.999959
195.500000	0.999958
196.500000	0.999956
197.500000	0.999954
198.500000	0.999952
199.500000	0.999950
200.500000	0.999948
201.500000	0.999946
202.500000	0.999944
203.500000	0.999942
204.500000	0.999939
205.500000	0.999937
206.500000	0.999934
207.500000	0.999932
208.500000	0.999929
209.500000	0.999926
210.500000	0.999923
211.500000	0.999920
212.500000	0.999916
213.500000	0.999913
214.500000	0.999910
215.500000	0.999906
216.500000	0.999902
217.500000	0.999898
218.500000	0.999894
219.500000	0.999889
220.500000	0.999885
221.500000	0.999880
222.500000	0.999875
223.500000	0.999870
224.500000	0.999865
225.500000	0.999860
226.500000	0.999854
227.500000	0.999848
228.500000	0.999842
229.500000	0.999835
230.500000	0.999828
231.500000	0.999821
232.500000	0.999814
233.500000	0.999807
234.500000	0.999799
235.500000	0.999790
236.500000	0.999782
237.500000	0.999773
238.500000	0.999764
239.500000	0.999754
240.500000	0.999744
241.500000	0.999734
242.500000	0.999723
243.500000	0.999712
244.500000	0.999700
245.500000	0.999688
246.500000	0.999675
247.500000	0.999662
248.500000	0.999648
249.500000	0.999633
250.500000	0.999618
251.500000	0.999603
252.500000	0.999587
253.500000	0.999570
254.500000	0.999552
255.500000	0.999534
256.500000	0.999515
257.500000	0.999495
258.500000	0.999475
259.500000	0.999453
260.500000	0.999431
261.500000	0.999408
262.500000	0.999384
263.500000	0.999359
264.500000	0.999332
265.500000	0.999305
266.500000	0.999277
267.500000	0.999248
268.500000	0.999217
269.500000	0.999185
270.500000	0.999152
271.500000	0.999117
272.500000	0.999081
273.500000	0.999044
274.500000	0.999005
275.500000	0.998965
276.500000	0.998922
277.500000	0.998879
278.500000	0.998833
279.500000	0.998786
280.500000	0.998736
281.500000	0.998685
282.500000	0.998631
283.500000	0.998576
284.500000	0.998518
285.500000	0.998457
286.500000	0.998395
287.500000	0.998330
288.500000	0.998262
289.500000	0.998191
290.500000	0.998118
291.500000	0.998041
292.500000	0.997962
293.500000	0.997879
294.500000	0.997793
295.500000	0.997704
296.500000	0.997610
297.500000	0.997514
298.500000	0.997413
299.500000	0.997308
300.500000	0.997199
301.500000	0.997086
302.500000	0.996968
303.500000	0.996845
304.500000	0.996717
305.500000	0.996585
306.500000	0.996447
307.500000	0.996303
308.500000	0.996154
309.500000	0.995998
310.500000	0.995837
311.500000	0.995669
312.500000	0.995494
313.500000	0.995313
314.500000	0.995124
315.500000	0.994928
316.500000	0.994724
317.500000	0.994512
318.500000	0.994291
319.500000	0.994062
320.500000	0.993823
321.500000	0.993576
322.500000	0.993318
323.500000	0.993050
324.500000	0.992772
325.500000	0.992483
326.500000	0.992183
327.500000	0.991871
328.500000	0.991546
329.500000	0.991209
330.500000	0.990859
331.500000	0.990495
332.500000	0.990118
333.500000	0.989725
334.500000	0.989318
335.500000	0.988894
336.500000	0.988455
337.500000	0.987998
338.500000	0.987524
339.500000	0.987032
340.500000	0.986521
341.500000	0.985991
342.500000	0.985441
343.500000	0.984870
344.500000	0.984277
345.500000	0.983662
346.500000	0.983024
347.500000	0.982363
348.500000	0.981676
349.500000	0.980964
350.500000	0.980226
351.500000	0.979461
352.500000	0.978667
353.500000	0.977844
354.500000	0.976992
355.500000	0.976108
356.500000	0.975193
357.500000	0.974245
358.500000	0.973262
359.500000	0.972245
360.500000	0.971191
361.500000	0.970100
362.500000	0.968971
363.500000	0.967803
364.500000	0.966593
365.500000	0.965342
366.500000	0.964048
367.500000	0.962709
368.500000	0.961325
369.500000	0.959894
370.500000	0.958415
371.500000	0.956887
372.500000	0.955307
373.500000	0.953676
374.500000	0.951991
375.500000	0.950252
376.500000	0.948456
377.500000	0.946603
378.500000	0.944690
379.500000	0.942717
380.500000	0.940683
381.500000	0.938585
382.500000	0.936423
383.500000	0.934194
384.500000	0.931899
385.500000	0.929534
386.500000	0.927098
387.500000	0.924591
388.500000	0.922011
389.500000	0.919356
390.500000	0.916626
391.500000	0.913818
392.500000	0.910931
393.500000	0.907964
394.500000	0.904915
395.500000	0.901784
396.500000	0.898569
397.500000	0.895269
398.500000	0.891882
399.500000	0.888408
400.500000	0.884844
401.500000	0.881191
402.500000	0.877447
403.500000	0.873610
404.500000	0.869681
405.500000	0.865657
406.500000	0.861539
407.500000	0.857325
408.500000	0.853014
409.500000	0.848606
410.500000	0.844100
411.500000	0.839496
412.500000	0.834793
413.500000	0.829990
414.500000	0.825088
415.500000	0.820085
416.500000	0.814982
417.500000	0.809779
418.500000	0.804475
419.500000	0.799071
420.500000	0.793566
421.500000	0.787961
422.500000	0.782257
423.500000	0.776453
424.500000	0.770551
425.500000	0.764551
426.500000	0.758454
427.500000	0.752260
428.500000	0.745971
429.500000	0.739588
430.500000	0.733112
431.500000	0.726545
432.500000	0.719888
433.500000	0.713143
434.500000	0.706312
435.500000	0.699397
436.500000	0.692399
437.500000	0.685322
438.500000	0.678167
439.500000	0.670938
440.500000	0.663636
441.500000	0.656265
442.500000	0.648829
443.500000	0.641329
444.500000	0.633770
445.500000	0.626155
446.500000	0.618489
447.500000	0.610773
448.500000	0.603014
449.500000	0.595215
450.500000	0.587380
451.500000	0.579514
452.500000	0.571621
453.500000	0.563707
454.500000	0.555776
455.500000	0.547833
456.500000	0.539883
457.500000	0.531932
458.500000	0.523985
459.500000	0.516048
460.500000	0.508125
461.500000	0.500223
462.500000	0.492348
463.500000	0.484503
464.500000	0.476697
465.500000	0.468933
466.500000	0.461218
467.500000	0.453557
468.500000	0.445956
469.500000	0.438421
470.500000	0.430955
471.500000	0.423566
472.500000	0.416257
473.500000	0.409034
474.500000	0.401902
475.500000	0.394865
476.500000	0.387927
477.500000	0.381092
478.500000	0.374365
479.500000	0.367749
480.500000	0.361247
481.500000	0.354863
482.500000	0.348598
483.500000	0.342457
484.500000	0.336440
485.500000	0.330550
486.500000	0.324788
487.500000	0.319156
488.500000	0.313655
489.500000	0.308285
490.500000	0.303046
491.500000	0.297940
492.500000	0.292965
493.500000	0.288121
494.500000	0.283409
495.500000	0.278826
496.500000	0.274372
497.500000	0.270046
498.500000	0.265845
499.500000	0.261769
500.500000	0.257816
501.500000	0.253983
502.500000	0.250269
503.500000	0.246672
504.500000	0.243189
505.500000	0.239817
506.500000	0.236555
507.500000	0.233400
508.500000	0.230350
509.500000	0.227402
510.500000	0.224553
511.500000	0.221800
512.500000	0.219142
513.500000	0.216576
514.500000	0.214098
515.500000	0.211708
516.500000	0.209401
517.500000	0.207175
518.500000	0.205029
519.500000	0.202959
520.500000	0.200964
521.500000	0.199040
522.500000	0.197186
523.500000	0.195399
524.500000	0.193677
525.500000	0.192018
526.500000	0.190420
527.500000	0.188881
528.500000	0.187398
529.500000	0.185970
530.500000	0.184596
531.500000	0.183272
532.500000	0.181998
533.500000	0.180771
534.500000	0.179591
535.500000	0.178454
536.500000	0.177360
537.500000	0.176308
538.500000	0.175295
539.500000	0.174320
540.500000	0.173383
541.500000	0.172481
542.500000	0.171613
543.500000	0.170778
544.500000	0.169975
545.500000	0.169202
546.500000	0.168459
547.500000	0.167744
548.500000	0.167057
549.500000	0.166396
550.500000	0.165760
551.500000	0.165149
552.500000	0.164561
553.500000	0.163996
554.500000	0.163452
555.500000	0.162929
556.500000	0.162427
557.500000	0.161944
558.500000	0.161479
559.500000	0.161032
560.500000	0.160603
561.500000	0.160190
562.500000	0.159793
563.500000	0.159412
564.500000	0.159045
565.500000	0.158693
566.500000	0.158354
567.500000	0.158028
568.500000	0.157715
569.500000	0.157414
570.500000	0.157125
571.500000	0.156847
572.500000	0.156580
573.500000	0.156323
574.500000	0.156076
575.500000	0.155839
576.500000	0.155611
577.500000	0.155391
578.500000	0.155181
579.500000	0.154978
580.500000	0.154784
581.500000	0.154597
582.500000	0.154417
583.500000	0.154244
584.500000	0.154078
585.500000	0.153919
586.500000	0.153766
587.500000	0.153618
588.500000	0.153477
589.500000	0.153341
590.500000	0.153210
591.500000	0.153085
592.500000	0.152964
593.500000	0.152848
594.500000	0.152736
595.500000	0.152629
596.500000	0.152526
597.500000	0.152427
598.500000	0.152332
599.500000	0.152241
600.500000	0.152153
601.500000	0.152069
602.500000	0.151988
603.500000	0.151910
604.500000	0.151835
605.500000	0.151764
606.500000	0.151694
607.500000	0.151628
608.500000	0.151564
609.500000	0.151503
610.500000	0.151444
611.500000	0.151388
612.500000	0.151333
613.500000	0.151281
614.500000	0.151231
615.500000	0.151183
616.500000	0.151136
617.500000	0.151092
618.500000	0.151049
619.500000	0.151008
620.500000	0.150968
621.500000	0.150930
622.500000	0.150894
623.500000	0.150859
624.500000	0.150825
625.500000	0.150793
626.500000	0.150762
627.500000	0.150732
628.500000	0.150703
629.500000	0.150676
630.500000	0.150649
631.500000	0.150624
632.500000	0.150599
633.500000	0.150576
634.500000	0.150553
635.500000	0.150532
636.500000	0.150511
637.500000	0.150491
638.500000	0.150472
639.500000	0.150453
640.500000	0.150435
641.500000	0.150418
642.500000	0.150402
643.500000	0.150386
644.500000	0.150371
645.500000	0.150356
646.500000	0.150342
647.500000	0.150329
648.500000	0.150316
649.500000	0.150304
650.500000	0.150292
651.500000	0.150280
652.500000	0.150269
653.500000	0.150259
654.500000	0.150249
655.500000	0.150239
656.500000	0.150230
657.500000	0.150221
658.500000	0.150212
659.500000	0.150204
660.500000	0.150196
661.500000	0.150188
662.500000	0.150181
663.500000	0.150174
664.500000	0.150167
665.500000	0.150160
666.500000	0.150154
667.500000	0.150148
668.500000	0.150142
669.500000	0.150136
670.500000	0.150131
671.500000	0.150126
672.500000	0.150121
673.500000	0.150116
674.500000	0.150112
675.500000	0.150107
676.500000	0.150103
677.500000	0.150099
678.500000	0.150095
679.500000	0.150091
680.500000	0.150088
681.500000	0.150084
682.500000	0.150081
683.500000	0.150078
684.500000	0.150075
685.500000	0.150072
686.500000	0.150069
687.500000	0.150067
688.500000	0.150064
689.500000	0.150062
690.500000	0.150059
691.500000	0.150057
692.500000	0.150055
693.500000	0.150054
694.500000	0.150052
695.500000	0.150050
696.500000	0.150049
697.500000	0.150048
698.500000	0.150047
699.500000	0.150046
